Data from HR4D30811__11__00011.txt Node

Date: Fri Jan 26 16:32:54 MST 2024
User: Brock
Spectrometer: HR4D3081
Trigger mode: 4
Integration Time (sec): 8.000000E0
Scans to average: 1
Electric dark correction enabled: true
Nonlinearity correction enabled: false
Boxcar width: 0
XAxis mode: Wavelengths
Number of Pixels in Spectrum: 3648
>>>>>Begin Spectral Data<<<<<
197.25	-1212
197.385	-1212
197.519	-1212
197.653	-1202
197.787	162
197.922	-134
198.056	84
198.19	-4
198.324	30
198.459	-208
198.593	417
198.727	-21
198.861	-126
198.996	217
199.13	-268
199.264	-201
199.398	-34
199.533	248
199.667	103
199.801	-97
199.935	-284
200.07	-37
200.204	-6
200.338	-187
200.472	-187
200.606	-360
200.741	-179
200.875	-159
201.009	-70
201.143	-224
201.277	88
201.412	67
201.546	218
201.68	164
201.814	-179
201.948	37
202.082	-79
202.217	-301
202.351	-133
202.485	-42
202.619	-267
202.753	-342
202.887	295
203.021	122
203.156	210
203.29	27
203.424	-31
203.558	-158
203.692	-79
203.826	-313
203.96	-108
204.094	138
204.229	-162
204.363	-205
204.497	-327
204.631	-285
204.765	-233
204.899	-130
205.033	-150
205.167	-241
205.301	26
205.435	-326
205.569	-97
205.704	-72
205.838	-320
205.972	-155
206.106	528
206.24	-186
206.374	-211
206.508	26
206.642	35
206.776	-92
206.91	162
207.044	46
207.178	129
207.312	-32
207.446	-140
207.58	-161
207.714	-253
207.848	141
207.982	-353
208.116	31
208.25	-250
208.384	-186
208.518	-175
208.652	-232
208.786	-279
208.92	202
209.054	-77
209.188	-287
209.322	-112
209.456	-133
209.59	-289
209.724	-74
209.858	-44
209.992	-95
210.126	-186
210.26	-184
210.394	-93
210.528	-33
210.662	-197
210.796	-162
210.929	98
211.063	9
211.197	-91
211.331	-22
211.465	-194
211.599	51
211.733	139
211.867	-220
212.001	-190
212.135	-66
212.269	-233
212.402	-209
212.536	70
212.67	-135
212.804	-259
212.938	58
213.072	-203
213.206	-107
213.34	-180
213.473	-173
213.607	117
213.741	-286
213.875	-274
214.009	-214
214.143	-186
214.277	-151
214.41	-231
214.544	246
214.678	113
214.812	271
214.946	-266
215.08	-189
215.213	-209
215.347	-138
215.481	-109
215.615	-326
215.749	7
215.882	-239
216.016	-276
216.15	63
216.284	190
216.418	24
216.551	91
216.685	-2
216.819	-283
216.953	-142
217.086	261
217.22	-179
217.354	-53
217.488	74
217.621	82
217.755	-14
217.889	-132
218.023	-67
218.156	85
218.29	70
218.424	172
218.558	-210
218.691	-362
218.825	-136
218.959	369
219.092	-140
219.226	-346
219.36	-311
219.494	-85
219.627	-160
219.761	-200
219.895	-98
220.028	-321
220.162	512
220.296	137
220.429	-19
220.563	-77
220.697	-41
220.83	-252
220.964	-166
221.098	-274
221.231	-264
221.365	71
221.499	-213
221.632	-251
221.766	22
221.9	-119
222.033	47
222.167	87
222.3	-212
222.434	-9
222.568	245
222.701	-151
222.835	-141
222.968	-230
223.102	-246
223.236	-275
223.369	-16
223.503	-11
223.636	-256
223.77	-160
223.904	3
224.037	-166
224.171	86
224.304	30
224.438	-192
224.571	-112
224.705	194
224.839	-54
224.972	-359
225.106	-18
225.239	-112
225.373	64
225.506	-82
225.64	39
225.773	-122
225.907	-205
226.04	-327
226.174	-130
226.307	-55
226.441	-150
226.575	-6
226.708	148
226.842	-105
226.975	-178
227.109	-233
227.242	4
227.375	57
227.509	-55
227.642	-144
227.776	46
227.909	64
228.043	-232
228.176	221
228.31	-267
228.443	328
228.577	-58
228.71	-134
228.844	-41
228.977	-274
229.111	-193
229.244	64
229.377	-313
229.511	-48
229.644	-188
229.778	-171
229.911	-223
230.044	-163
230.178	-41
230.311	-231
230.445	41
230.578	-211
230.711	-92
230.845	342
230.978	47
231.112	-229
231.245	-231
231.378	-227
231.512	35
231.645	-405
231.779	-349
231.912	-70
232.045	75
232.179	-196
232.312	-139
232.445	84
232.579	266
232.712	161
232.845	-199
232.979	-351
233.112	9
233.245	-128
233.379	-311
233.512	-29
233.645	-237
233.779	-234
233.912	20
234.045	-162
234.179	15
234.312	-146
234.445	8
234.578	-38
234.712	-8
234.845	48
234.978	-194
235.112	-61
235.245	86
235.378	-177
235.511	-35
235.645	19
235.778	-14
235.911	-168
236.044	-290
236.178	281
236.311	-232
236.444	-260
236.577	-246
236.711	-54
236.844	-411
236.977	-160
237.11	-201
237.243	22
237.377	-271
237.51	-237
237.643	946
237.776	-158
237.909	-142
238.043	3
238.176	-220
238.309	-82
238.442	-322
238.575	-98
238.709	411
238.842	-12
238.975	-21
239.108	151
239.241	-297
239.374	-262
239.508	-196
239.641	181
239.774	328
239.907	-56
240.04	-257
240.173	29
240.306	206
240.44	-171
240.573	175
240.706	-148
240.839	8
240.972	-68
241.105	-46
241.238	24
241.371	-35
241.504	-55
241.638	-153
241.771	-40
241.904	-165
242.037	35
242.17	-190
242.303	-316
242.436	-72
242.569	-110
242.702	-233
242.835	-173
242.968	-34
243.101	-110
243.234	-219
243.367	-251
243.5	-127
243.634	-195
243.767	-313
243.9	-264
244.033	-224
244.166	76
244.299	-332
244.432	-263
244.565	-6
244.698	-342
244.831	-191
244.964	-253
245.097	-189
245.23	3
245.363	172
245.496	-293
245.629	-150
245.762	451
245.895	-267
246.028	-207
246.161	451
246.294	39
246.427	-249
246.559	82
246.692	-55
246.825	-151
246.958	-236
247.091	-298
247.224	-321
247.357	-208
247.49	118
247.623	-165
247.756	-272
247.889	291
248.022	-80
248.155	-284
248.288	-91
248.421	-242
248.553	31
248.686	-226
248.819	90
248.952	-253
249.085	159
249.218	-39
249.351	-99
249.484	141
249.617	-63
249.749	-271
249.882	-253
250.015	-246
250.148	-159
250.281	-240
250.414	-155
250.547	-173
250.679	189
250.812	-130
250.945	21
251.078	-270
251.211	-155
251.344	-293
251.476	-188
251.609	-12
251.742	-310
251.875	-91
252.008	-232
252.14	-327
252.273	-97
252.406	103
252.539	-44
252.672	-81
252.804	177
252.937	-284
253.07	-33
253.203	-126
253.335	70
253.468	-381
253.601	-157
253.734	-59
253.866	-140
253.999	371
254.132	-3
254.265	-144
254.397	-169
254.53	-131
254.663	28
254.796	-238
254.928	-284
255.061	-230
255.194	-77
255.327	-319
255.459	-40
255.592	-273
255.725	185
255.857	-235
255.99	-4
256.123	-263
256.255	-236
256.388	-50
256.521	-251
256.653	-298
256.786	-249
256.919	-190
257.051	-255
257.184	-17
257.317	-207
257.449	-283
257.582	-112
257.715	-216
257.847	-229
257.98	-97
258.113	-180
258.245	-135
258.378	-354
258.51	-278
258.643	-228
258.776	86
258.908	-291
259.041	-72
259.174	-188
259.306	-199
259.439	-285
259.571	-196
259.704	-110
259.837	142
259.969	-224
260.102	-224
260.234	224
260.367	68
260.499	-239
260.632	-179
260.765	-200
260.897	-233
261.03	-247
261.162	-61
261.295	-73
261.427	81
261.56	-79
261.692	-266
261.825	-54
261.957	99
262.09	128
262.222	1
262.355	-256
262.487	-131
262.62	-280
262.752	-120
262.885	-154
263.017	-16
263.15	-215
263.282	-88
263.415	-260
263.547	-23
263.68	199
263.812	-308
263.945	-136
264.077	-255
264.21	144
264.342	-306
264.475	-234
264.607	144
264.74	-396
264.872	-99
265.004	105
265.137	57
265.269	325
265.402	-260
265.534	-188
265.667	-177
265.799	137
265.931	-92
266.064	-12
266.196	-140
266.329	-172
266.461	-170
266.593	26
266.726	-350
266.858	-161
266.99	-90
267.123	-185
267.255	-81
267.388	-133
267.52	-249
267.652	-205
267.785	136
267.917	-19
268.049	-135
268.182	380
268.314	59
268.446	-333
268.579	-210
268.711	173
268.843	-179
268.976	-55
269.108	369
269.24	145
269.373	-26
269.505	-181
269.637	-151
269.77	-239
269.902	120
270.034	-287
270.167	21
270.299	-23
270.431	8
270.563	-186
270.696	-16
270.828	-111
270.96	-97
271.092	-30
271.225	-254
271.357	-53
271.489	-174
271.621	-262
271.754	511
271.886	-224
272.018	-202
272.15	291
272.283	-278
272.415	-184
272.547	54
272.679	88
272.811	-100
272.944	-99
273.076	-359
273.208	-50
273.34	-90
273.473	-126
273.605	92
273.737	-298
273.869	-39
274.001	-400
274.133	-10
274.266	-221
274.398	1425
274.53	26
274.662	134
274.794	15
274.926	63
275.059	-194
275.191	-5
275.323	-250
275.455	101
275.587	-227
275.719	-164
275.851	-107
275.983	35
276.116	-30
276.248	77
276.38	-267
276.512	-20
276.644	-167
276.776	-261
276.908	-46
277.04	-138
277.172	44
277.304	-202
277.437	-35
277.569	-214
277.701	-213
277.833	-121
277.965	-183
278.097	69
278.229	-200
278.361	-147
278.493	82
278.625	180
278.757	40
278.889	-248
279.021	-187
279.153	514
279.285	-226
279.417	573
279.549	62
279.681	-122
279.813	-197
279.945	30
280.077	-212
280.209	1106
280.341	-265
280.473	-173
280.605	71
280.737	-11
280.869	192
281.001	-71
281.133	-346
281.265	-2
281.397	-142
281.529	233
281.661	-278
281.793	-357
281.925	-232
282.057	-141
282.189	-156
282.321	-34
282.453	26
282.585	-260
282.717	116
282.849	-84
282.98	-144
283.112	-227
283.244	-26
283.376	-246
283.508	-348
283.64	-237
283.772	66
283.904	80
284.036	-301
284.168	99
284.299	-72
284.431	-45
284.563	-137
284.695	-156
284.827	-254
284.959	1
285.091	-259
285.222	-230
285.354	-185
285.486	-124
285.618	-250
285.75	-133
285.882	158
286.013	32
286.145	-47
286.277	-4
286.409	72
286.541	33
286.673	-225
286.804	-210
286.936	-67
287.068	-212
287.2	-261
287.332	311
287.463	-326
287.595	-53
287.727	411
287.859	-122
287.99	-139
288.122	-228
288.254	15
288.386	-165
288.517	-293
288.649	-187
288.781	-15
288.913	-6
289.044	-260
289.176	181
289.308	-172
289.44	-360
289.571	-204
289.703	-263
289.835	78
289.967	-256
290.098	-341
290.23	-316
290.362	78
290.493	-317
290.625	-221
290.757	-200
290.888	-153
291.02	-51
291.152	-10
291.283	-31
291.415	-137
291.547	-253
291.678	-254
291.81	-42
291.942	250
292.073	-39
292.205	-300
292.337	55
292.468	497
292.6	-187
292.732	598
292.863	-233
292.995	-341
293.126	31
293.258	171
293.39	-270
293.521	-239
293.653	-302
293.785	102
293.916	-157
294.048	16
294.179	22
294.311	-244
294.442	29
294.574	-275
294.706	-112
294.837	61
294.969	-76
295.1	-242
295.232	-254
295.363	185
295.495	-197
295.627	-20
295.758	108
295.89	-364
296.021	2
296.153	57
296.284	-104
296.416	-127
296.547	-192
296.679	-52
296.81	-35
296.942	-371
297.073	-275
297.205	-277
297.336	-181
297.468	-226
297.599	-58
297.731	-344
297.862	-129
297.994	-325
298.125	-277
298.257	-134
298.388	17
298.52	-23
298.651	-143
298.782	244
298.914	-237
299.045	-166
299.177	-301
299.308	-330
299.44	-3
299.571	-44
299.702	-164
299.834	-110
299.965	-136
300.097	-248
300.228	-46
300.36	-77
300.491	-94
300.622	4
300.754	-132
300.885	-203
301.017	-37
301.148	-207
301.279	-347
301.411	-2
301.542	-39
301.673	-46
301.805	3
301.936	-203
302.067	-148
302.199	-177
302.33	-270
302.461	302
302.593	-18
302.724	-31
302.855	-308
302.987	-139
303.118	-306
303.249	-320
303.381	-131
303.512	-207
303.643	-203
303.775	92
303.906	-241
304.037	-247
304.169	-228
304.3	-172
304.431	-304
304.562	-251
304.694	-177
304.825	-54
304.956	103
305.087	-180
305.219	-10
305.35	-69
305.481	-211
305.612	22
305.744	-23
305.875	-153
306.006	498
306.137	-215
306.269	-61
306.4	30
306.531	82
306.662	-142
306.794	110
306.925	-215
307.056	-272
307.187	-31
307.318	-127
307.45	-166
307.581	-223
307.712	-240
307.843	-122
307.974	-63
308.105	89
308.237	-63
308.368	-301
308.499	-164
308.63	8
308.761	-114
308.892	-114
309.024	-131
309.155	-194
309.286	-186
309.417	-286
309.548	-158
309.679	-154
309.81	-409
309.941	457
310.073	-27
310.204	-316
310.335	-10
310.466	-190
310.597	-241
310.728	-179
310.859	348
310.99	282
311.121	-93
311.252	-118
311.383	-268
311.514	-59
311.646	-175
311.777	-9
311.908	-66
312.039	-154
312.17	-325
312.301	-148
312.432	-227
312.563	-320
312.694	-52
312.825	-156
312.956	-232
313.087	39
313.218	42
313.349	-144
313.48	-346
313.611	-149
313.742	-73
313.873	70
314.004	-55
314.135	-183
314.266	-69
314.397	-183
314.528	-296
314.659	-273
314.79	-236
314.921	33
315.052	8
315.183	-266
315.314	-298
315.445	51
315.576	-37
315.707	-159
315.838	-188
315.968	-22
316.099	-293
316.23	-307
316.361	94
316.492	-133
316.623	52
316.754	164
316.885	-364
317.016	-308
317.147	-375
317.278	88
317.408	-214
317.539	-277
317.67	-271
317.801	-35
317.932	-197
318.063	-213
318.194	-157
318.325	-10
318.455	-357
318.586	-171
318.717	-33
318.848	-340
318.979	81
319.11	271
319.24	33
319.371	54
319.502	-110
319.633	-208
319.764	-117
319.895	-270
320.025	-101
320.156	-318
320.287	-409
320.418	-262
320.549	-80
320.679	-329
320.81	102
320.941	-332
321.072	-311
321.202	-22
321.333	220
321.464	-401
321.595	-260
321.726	211
321.856	-378
321.987	-136
322.118	-243
322.249	-12
322.379	-70
322.51	15
322.641	-71
322.771	-336
322.902	-107
323.033	-111
323.164	680
323.294	-156
323.425	-250
323.556	-210
323.686	-101
323.817	322
323.948	-27
324.078	-162
324.209	145
324.34	-194
324.47	201
324.601	-202
324.732	-70
324.862	3
324.993	-190
325.124	-399
325.254	-82
325.385	-86
325.516	499
325.646	376
325.777	-180
325.908	-179
326.038	37
326.169	-137
326.299	-72
326.43	111
326.561	-149
326.691	-152
326.822	-275
326.952	-232
327.083	-72
327.214	-261
327.344	-78
327.475	0
327.605	-79
327.736	-151
327.867	-300
327.997	-145
328.128	-65
328.258	-343
328.389	240
328.519	-298
328.65	6
328.78	-239
328.911	-37
329.041	71
329.172	-355
329.303	-232
329.433	-169
329.564	-285
329.694	-265
329.825	-199
329.955	-43
330.086	452
330.216	-130
330.347	-300
330.477	-114
330.608	-143
330.738	-123
330.868	-316
330.999	-181
331.129	110
331.26	-264
331.39	-201
331.521	118
331.651	19
331.782	-338
331.912	-290
332.043	-266
332.173	39
332.303	-321
332.434	133
332.564	-34
332.695	-221
332.825	-325
332.956	-204
333.086	-119
333.216	-277
333.347	-55
333.477	-402
333.608	-107
333.738	-33
333.868	-169
333.999	-58
334.129	77
334.259	-78
334.39	-241
334.52	24
334.65	-170
334.781	146
334.911	-191
335.042	-231
335.172	-34
335.302	-138
335.433	250
335.563	-267
335.693	-6
335.824	233
335.954	-387
336.084	-48
336.214	-46
336.345	294
336.475	70
336.605	-244
336.736	297
336.866	-123
336.996	-163
337.126	-304
337.257	-71
337.387	-357
337.517	-221
337.648	-363
337.778	166
337.908	86
338.038	31
338.169	-189
338.299	204
338.429	-73
338.559	-231
338.69	-187
338.82	382
338.95	-35
339.08	-455
339.21	-308
339.341	-107
339.471	8
339.601	-106
339.731	-70
339.861	-167
339.992	-143
340.122	-111
340.252	-222
340.382	-203
340.512	-107
340.642	174
340.773	-67
340.903	-320
341.033	-117
341.163	-54
341.293	86
341.423	-217
341.554	-310
341.684	-23
341.814	-142
341.944	-192
342.074	-121
342.204	-184
342.334	182
342.464	-293
342.595	-180
342.725	-304
342.855	-67
342.985	-175
343.115	-262
343.245	-375
343.375	-17
343.505	-159
343.635	-14
343.765	-197
343.895	-391
344.025	31
344.155	-279
344.286	-190
344.416	-66
344.546	105
344.676	-111
344.806	150
344.936	-68
345.066	170
345.196	-261
345.326	-311
345.456	89
345.586	-267
345.716	-278
345.846	36
345.976	-399
346.106	-129
346.236	39
346.366	10
346.496	-163
346.626	-170
346.756	-209
346.886	-245
347.016	-349
347.146	-242
347.276	-289
347.406	-225
347.536	-48
347.666	84
347.795	-270
347.925	-173
348.055	125
348.185	-194
348.315	-195
348.445	103
348.575	-213
348.705	-261
348.835	-263
348.965	-163
349.095	-3
349.225	221
349.354	-251
349.484	-160
349.614	-143
349.744	-264
349.874	-263
350.004	-339
350.134	-299
350.264	-333
350.393	-291
350.523	124
350.653	-313
350.783	-12
350.913	167
351.043	-251
351.173	-192
351.302	-35
351.432	170
351.562	-113
351.692	-112
351.822	-170
351.951	-389
352.081	148
352.211	-102
352.341	155
352.471	110
352.6	-140
352.73	-237
352.86	-154
352.99	-74
353.12	-76
353.249	-88
353.379	-250
353.509	54
353.639	-311
353.768	-95
353.898	-221
354.028	-274
354.158	-207
354.287	-229
354.417	-276
354.547	-272
354.677	-379
354.806	-141
354.936	5
355.066	-204
355.195	-26
355.325	-17
355.455	-258
355.584	177
355.714	-268
355.844	113
355.974	-31
356.103	-144
356.233	-158
356.363	22
356.492	-289
356.622	-280
356.752	-74
356.881	-356
357.011	35
357.14	117
357.27	-154
357.4	38
357.529	-178
357.659	126
357.789	52
357.918	-306
358.048	-340
358.177	-132
358.307	-244
358.437	-84
358.566	-235
358.696	54
358.825	91
358.955	-310
359.085	19
359.214	-406
359.344	-90
359.473	-269
359.603	-175
359.733	-211
359.862	-359
359.992	62
360.121	-173
360.251	6
360.38	-344
360.51	70
360.639	-181
360.769	-76
360.898	83
361.028	67
361.157	-79
361.287	-63
361.416	-258
361.546	-174
361.675	-169
361.805	-178
361.934	20
362.064	-175
362.193	-208
362.323	-275
362.452	90
362.582	-258
362.711	-151
362.841	29
362.97	-29
363.1	-266
363.229	-336
363.359	-129
363.488	-236
363.617	-114
363.747	-99
363.876	-386
364.006	-43
364.135	-106
364.265	-157
364.394	-204
364.523	279
364.653	-252
364.782	-12
364.912	-259
365.041	-273
365.17	-259
365.3	-70
365.429	151
365.558	-173
365.688	-233
365.817	-300
365.947	-77
366.076	-122
366.205	-104
366.335	-375
366.464	-254
366.593	87
366.723	-153
366.852	-152
366.981	-83
367.111	-303
367.24	-161
367.369	-138
367.499	477
367.628	121
367.757	-189
367.886	-68
368.016	62
368.145	-148
368.274	-68
368.404	-314
368.533	-125
368.662	8
368.791	-213
368.921	-389
369.05	138
369.179	-81
369.308	287
369.438	-312
369.567	-360
369.696	-157
369.825	-11
369.955	-185
370.084	-39
370.213	-100
370.342	-299
370.472	-301
370.601	390
370.73	4
370.859	-423
370.988	-190
371.118	-278
371.247	-3
371.376	68
371.505	-79
371.634	-24
371.763	-138
371.893	-269
372.022	-188
372.151	-259
372.28	-324
372.409	-393
372.538	-191
372.667	-64
372.797	105
372.926	-368
373.055	-85
373.184	-124
373.313	-268
373.442	-36
373.571	-234
373.7	-146
373.83	-60
373.959	-420
374.088	-176
374.217	89
374.346	-204
374.475	-374
374.604	-238
374.733	233
374.862	-143
374.991	-283
375.12	-84
375.249	-70
375.378	-251
375.508	-299
375.637	-317
375.766	46
375.895	-169
376.024	125
376.153	-267
376.282	-111
376.411	-248
376.54	-450
376.669	-63
376.798	-162
376.927	-267
377.056	71
377.185	-74
377.314	62
377.443	233
377.572	-286
377.701	-281
377.83	143
377.959	-6
378.088	1666
378.217	139
378.346	-185
378.474	-380
378.603	-310
378.732	-62
378.861	-210
378.99	-295
379.119	-393
379.248	-90
379.377	-160
379.506	-190
379.635	100
379.764	-99
379.893	-285
380.022	-327
380.15	-89
380.279	-342
380.408	-276
380.537	-133
380.666	-37
380.795	-81
380.924	-163
381.053	-282
381.181	-67
381.31	745
381.439	-268
381.568	-163
381.697	-186
381.826	-140
381.955	-264
382.083	-133
382.212	-339
382.341	14
382.47	-280
382.599	-147
382.727	237
382.856	-63
382.985	-22
383.114	-178
383.243	-225
383.371	-114
383.5	-252
383.629	-273
383.758	-242
383.887	-410
384.015	-83
384.144	-308
384.273	-106
384.402	-81
384.53	-251
384.659	-292
384.788	-285
384.917	-239
385.045	-112
385.174	-141
385.303	-406
385.432	37
385.56	-99
385.689	-186
385.818	-70
385.946	-12
386.075	-242
386.204	-284
386.332	-111
386.461	10
386.59	37
386.718	-297
386.847	-184
386.976	-184
387.104	-361
387.233	-314
387.362	-110
387.49	-92
387.619	-301
387.748	-134
387.876	121
388.005	-108
388.134	89
388.262	-327
388.391	-254
388.52	-54
388.648	-290
388.777	60
388.905	-247
389.034	-177
389.163	-238
389.291	-121
389.42	19
389.548	58
389.677	-124
389.805	-90
389.934	-30
390.063	-327
390.191	-349
390.32	-235
390.448	-160
390.577	-305
390.705	-310
390.834	-143
390.962	-311
391.091	-267
391.22	60
391.348	129
391.477	-20
391.605	-358
391.734	-221
391.862	-216
391.991	-299
392.119	-280
392.248	-165
392.376	-98
392.505	-170
392.633	-220
392.762	293
392.89	-321
393.018	47
393.147	-207
393.275	-372
393.404	-297
393.532	-222
393.661	-107
393.789	-91
393.918	-136
394.046	-162
394.174	-119
394.303	-349
394.431	-237
394.56	27
394.688	-350
394.817	-397
394.945	91
395.073	25
395.202	-87
395.33	-161
395.459	-144
395.587	96
395.715	64
395.844	-116
395.972	-445
396.1	63
396.229	-289
396.357	-70
396.485	-201
396.614	-275
396.742	81
396.87	-119
396.999	-38
397.127	-337
397.255	-48
397.384	56
397.512	-361
397.64	-270
397.769	-206
397.897	-46
398.025	-169
398.154	-95
398.282	171
398.41	-79
398.538	-130
398.667	-242
398.795	-242
398.923	24
399.052	-207
399.18	-179
399.308	-134
399.436	184
399.565	-296
399.693	-65
399.821	-148
399.949	-233
400.078	271
400.206	-326
400.334	-306
400.462	-164
400.59	-350
400.719	-211
400.847	-309
400.975	-67
401.103	-269
401.231	-98
401.36	-119
401.488	-56
401.616	-185
401.744	-162
401.872	-245
402	-20
402.129	-236
402.257	-292
402.385	-167
402.513	-164
402.641	-202
402.769	-154
402.897	-262
403.026	-351
403.154	-394
403.282	-326
403.41	-203
403.538	135
403.666	-343
403.794	-152
403.922	-103
404.05	-108
404.179	-152
404.307	-84
404.435	-304
404.563	-300
404.691	-396
404.819	452
404.947	-307
405.075	-256
405.203	-332
405.331	-234
405.459	-299
405.587	-87
405.715	-255
405.843	-212
405.971	-97
406.099	142
406.227	-63
406.355	-175
406.483	-376
406.611	-42
406.739	-313
406.867	-327
406.995	-233
407.123	-200
407.251	-410
407.379	-324
407.507	-54
407.635	-141
407.763	-440
407.891	-393
408.019	-4
408.147	6
408.275	166
408.403	-335
408.531	-377
408.659	177
408.787	-117
408.915	-231
409.043	-266
409.171	77
409.299	6
409.427	62
409.554	-373
409.682	304
409.81	-104
409.938	-191
410.066	32
410.194	-98
410.322	-309
410.45	-226
410.578	-355
410.705	-299
410.833	-112
410.961	62
411.089	315
411.217	-173
411.345	-181
411.473	-255
411.6	-120
411.728	-192
411.856	-333
411.984	-310
412.112	-92
412.239	-72
412.367	-205
412.495	55
412.623	-238
412.751	6
412.878	-390
413.006	-179
413.134	64
413.262	155
413.39	-43
413.517	-103
413.645	52
413.773	-368
413.901	171
414.028	-199
414.156	-162
414.284	-306
414.412	36
414.539	-213
414.667	-258
414.795	-249
414.923	-440
415.05	-212
415.178	-47
415.306	317
415.433	-253
415.561	50
415.689	36
415.816	-255
415.944	125
416.072	-320
416.2	-25
416.327	246
416.455	-287
416.583	-193
416.71	-246
416.838	153
416.966	-336
417.093	-174
417.221	82
417.348	-46
417.476	-356
417.604	-198
417.731	-151
417.859	45
417.987	-105
418.114	-282
418.242	29
418.369	-241
418.497	-340
418.625	140
418.752	-134
418.88	-286
419.007	152
419.135	-101
419.263	-224
419.39	21
419.518	79
419.645	38
419.773	621
419.9	1742
420.028	4229
420.155	5008
420.283	7018
420.41	7970
420.538	8840
420.666	9445
420.793	9613
420.921	8791
421.048	6890
421.176	4674
421.303	2394
421.431	664
421.558	-97
421.686	220
421.813	82
421.941	-188
422.068	-91
422.195	94
422.323	27
422.45	-366
422.578	-82
422.705	-239
422.833	-178
422.96	-278
423.088	-27
423.215	351
423.343	305
423.47	-96
423.597	218
423.725	-142
423.852	-121
423.98	-29
424.107	-356
424.234	-163
424.362	-212
424.489	-241
424.617	517
424.744	16
424.871	-315
424.999	-142
425.126	118
425.253	-68
425.381	-213
425.508	-319
425.636	5
425.763	-221
425.89	-234
426.018	-336
426.145	-190
426.272	-85
426.4	26
426.527	68
426.654	-309
426.781	-78
426.909	-103
427.036	-96
427.163	-378
427.291	-285
427.418	-187
427.545	-121
427.673	-362
427.8	-400
427.927	-315
428.054	-86
428.182	-176
428.309	-179
428.436	-250
428.563	-336
428.691	-57
428.818	-223
428.945	-1
429.072	-334
429.2	-100
429.327	-40
429.454	15
429.581	-154
429.708	-397
429.836	-262
429.963	-222
430.09	-247
430.217	-265
430.344	-311
430.472	-316
430.599	-69
430.726	-216
430.853	-155
430.98	-30
431.107	-302
431.235	-160
431.362	-66
431.489	-161
431.616	209
431.743	77
431.87	-364
431.997	-187
432.125	-116
432.252	-464
432.379	-210
432.506	-70
432.633	-273
432.76	-154
432.887	121
433.014	-185
433.141	-294
433.268	-63
433.395	-253
433.523	-159
433.65	-209
433.777	-226
433.904	-187
434.031	-346
434.158	-91
434.285	5
434.412	-371
434.539	-156
434.666	-336
434.793	-265
434.92	-296
435.047	-34
435.174	-163
435.301	6
435.428	254
435.555	192
435.682	-86
435.809	-323
435.936	83
436.063	-274
436.19	114
436.317	-287
436.444	-2
436.571	-275
436.698	-46
436.825	77
436.952	-43
437.079	-81
437.206	4
437.333	-311
437.46	-189
437.587	-130
437.714	-322
437.84	-178
437.967	-356
438.094	-383
438.221	53
438.348	-168
438.475	7993
438.602	-305
438.729	-435
438.856	-266
438.983	-293
439.109	-23
439.236	44
439.363	-438
439.49	-246
439.617	-125
439.744	-257
439.871	416
439.997	-251
440.124	-72
440.251	-60
440.378	-242
440.505	-209
440.632	77
440.758	147
440.885	249
441.012	-258
441.139	8
441.266	-330
441.392	-223
441.519	-306
441.646	-369
441.773	-89
441.9	218
442.026	-247
442.153	-114
442.28	-89
442.407	-299
442.533	10
442.66	-52
442.787	-124
442.914	-295
443.04	-215
443.167	-162
443.294	-124
443.421	-86
443.547	-343
443.674	-182
443.801	-87
443.927	57
444.054	363
444.181	69
444.307	72
444.434	-79
444.561	-334
444.688	-374
444.814	25
444.941	-215
445.068	-337
445.194	224
445.321	-281
445.447	191
445.574	-391
445.701	-362
445.827	-187
445.954	-424
446.081	-11
446.207	-313
446.334	-121
446.461	-194
446.587	-412
446.714	-37
446.84	36
446.967	-254
447.094	-211
447.22	67
447.347	-147
447.473	-275
447.6	-79
447.726	-369
447.853	-108
447.98	-143
448.106	-79
448.233	-101
448.359	-222
448.486	-84
448.612	-237
448.739	-45
448.865	78
448.992	201
449.118	-239
449.245	-330
449.371	-299
449.498	-138
449.624	1
449.751	-135
449.877	-253
450.004	-151
450.13	-124
450.257	-299
450.383	-174
450.51	-390
450.636	-244
450.763	-213
450.889	-259
451.016	-433
451.142	-62
451.269	-272
451.395	242
451.521	-176
451.648	-246
451.774	-107
451.901	-399
452.027	-155
452.154	38
452.28	-163
452.406	-264
452.533	-231
452.659	-330
452.785	-195
452.912	-336
453.038	-343
453.165	-85
453.291	115
453.417	156
453.544	-326
453.67	-221
453.796	69
453.923	-330
454.049	-227
454.175	-278
454.302	-247
454.428	-55
454.554	-106
454.681	-285
454.807	-302
454.933	293
455.06	-119
455.186	-184
455.312	98
455.439	36
455.565	-355
455.691	-332
455.817	-41
455.944	67
456.07	-168
456.196	-47
456.322	-370
456.449	-383
456.575	-164
456.701	-266
456.827	-269
456.954	-344
457.08	-291
457.206	-452
457.332	-142
457.459	-383
457.585	-275
457.711	-279
457.837	-25
457.963	-84
458.09	-286
458.216	-336
458.342	-158
458.468	-198
458.594	-173
458.721	-112
458.847	-96
458.973	-374
459.099	-209
459.225	-217
459.351	-204
459.477	-70
459.604	-327
459.73	-220
459.856	-315
459.982	-137
460.108	-395
460.234	-467
460.36	-189
460.486	-52
460.613	-305
460.739	66
460.865	-248
460.991	204
461.117	135
461.243	-329
461.369	-351
461.495	-241
461.621	-170
461.747	-81
461.873	-55
461.999	-304
462.125	-160
462.252	35
462.378	-108
462.504	-47
462.63	-109
462.756	-339
462.882	-202
463.008	-226
463.134	74
463.26	-376
463.386	-177
463.512	-91
463.638	-240
463.764	-345
463.89	-198
464.016	47
464.142	-43
464.268	-307
464.394	-237
464.52	-357
464.645	-90
464.771	14
464.897	-258
465.023	-257
465.149	-131
465.275	-363
465.401	-300
465.527	67
465.653	-156
465.779	51
465.905	-348
466.031	-129
466.157	-309
466.282	-229
466.408	-264
466.534	-141
466.66	-432
466.786	-188
466.912	-110
467.038	-166
467.164	-197
467.289	-260
467.415	-180
467.541	-151
467.667	-197
467.793	-214
467.919	-83
468.045	132
468.17	-291
468.296	-157
468.422	-192
468.548	19
468.674	-408
468.799	-306
468.925	-233
469.051	-342
469.177	-393
469.303	-415
469.428	-26
469.554	-281
469.68	-280
469.806	-95
469.931	-137
470.057	353
470.183	-495
470.309	-271
470.434	142
470.56	-189
470.686	-91
470.812	-167
470.937	-333
471.063	-275
471.189	-60
471.315	33
471.44	-149
471.566	-186
471.692	49
471.817	-289
471.943	-146
472.069	-43
472.194	-202
472.32	-279
472.446	-21
472.571	-295
472.697	-257
472.823	-116
472.948	-336
473.074	-106
473.2	-180
473.325	-366
473.451	-193
473.577	-167
473.702	-427
473.828	-217
473.953	-371
474.079	-134
474.205	-359
474.33	-336
474.456	-243
474.581	185
474.707	-257
474.833	-264
474.958	-104
475.084	13
475.209	-237
475.335	-290
475.46	-77
475.586	-219
475.712	-58
475.837	-219
475.963	-225
476.088	-405
476.214	-299
476.339	-247
476.465	-280
476.59	-393
476.716	108
476.841	-334
476.967	205
477.092	-231
477.218	-119
477.343	-335
477.469	182
477.594	-255
477.72	-339
477.845	-127
477.971	-235
478.096	-146
478.222	-224
478.347	3264
478.472	-7
478.598	-284
478.723	-256
478.849	-23
478.974	-120
479.1	-305
479.225	-131
479.35	-241
479.476	-57
479.601	-284
479.727	42
479.852	-276
479.977	-139
480.103	-179
480.228	169
480.354	-220
480.479	25
480.604	-259
480.73	-287
480.855	-448
480.98	31
481.106	-346
481.231	-391
481.356	-283
481.482	-429
481.607	-345
481.732	-486
481.858	-221
481.983	-324
482.108	-291
482.234	-406
482.359	-288
482.484	112
482.61	-314
482.735	-133
482.86	-380
482.985	-244
483.111	-186
483.236	-91
483.361	-223
483.486	-312
483.612	5
483.737	-442
483.862	-196
483.987	-98
484.113	-425
484.238	-63
484.363	-351
484.488	-242
484.614	7
484.739	-212
484.864	30
484.989	462
485.114	-93
485.24	-183
485.365	-234
485.49	-425
485.615	0
485.74	-172
485.865	-112
485.991	-125
486.116	-59
486.241	-386
486.366	-344
486.491	-39
486.616	-272
486.742	-232
486.867	-214
486.992	-359
487.117	-319
487.242	-312
487.367	-443
487.492	-235
487.617	-13
487.742	-178
487.868	-290
487.993	-77
488.118	-95
488.243	-118
488.368	-264
488.493	-419
488.618	-267
488.743	-253
488.868	-262
488.993	-209
489.118	12
489.243	-181
489.368	-292
489.493	7
489.618	-177
489.743	-355
489.868	-161
489.993	-237
490.118	-427
490.243	361
490.368	-242
490.493	-36
490.618	-7
490.743	-455
490.868	-152
490.993	-149
491.118	-16
491.243	-334
491.368	-171
491.493	-26
491.618	-169
491.743	-225
491.868	-263
491.993	-212
492.118	-278
492.243	-150
492.368	-80
492.493	-271
492.618	138
492.743	-248
492.867	14
492.992	-164
493.117	-5
493.242	-269
493.367	-163
493.492	22
493.617	-295
493.742	95
493.867	-241
493.991	-379
494.116	-198
494.241	-148
494.366	-224
494.491	-71
494.616	40
494.74	-300
494.865	-377
494.99	-241
495.115	-235
495.24	-143
495.365	-261
495.489	-221
495.614	-107
495.739	-225
495.864	-254
495.989	-406
496.113	13
496.238	-121
496.363	-284
496.488	-327
496.612	-21
496.737	-254
496.862	-250
496.987	-250
497.111	-321
497.236	-332
497.361	-295
497.486	87
497.61	-7
497.735	-201
497.86	-69
497.984	-44
498.109	-390
498.234	-285
498.359	-253
498.483	-181
498.608	-150
498.733	-226
498.857	-350
498.982	-176
499.107	-395
499.231	-182
499.356	-233
499.481	104
499.605	-510
499.73	-391
499.855	17
499.979	-313
500.104	-182
500.228	134
500.353	-237
500.478	-353
500.602	-145
500.727	86
500.852	-86
500.976	-454
501.101	-239
501.225	125
501.35	-338
501.474	-337
501.599	-13
501.724	-229
501.848	-181
501.973	113
502.097	-354
502.222	-417
502.346	-39
502.471	-145
502.595	-287
502.72	-357
502.844	-342
502.969	-238
503.094	181
503.218	-397
503.343	-260
503.467	-295
503.592	-238
503.716	-233
503.841	-110
503.965	188
504.089	-203
504.214	-340
504.338	-244
504.463	-8
504.587	-136
504.712	-140
504.836	-193
504.961	278
505.085	98
505.21	-288
505.334	-270
505.458	175
505.583	-357
505.707	-103
505.832	-263
505.956	-151
506.08	-305
506.205	-278
506.329	106
506.454	-358
506.578	-171
506.702	-298
506.827	131
506.951	-70
507.076	-204
507.2	-374
507.324	-27
507.449	48
507.573	-202
507.697	-266
507.822	-152
507.946	-202
508.07	-412
508.195	-214
508.319	-233
508.443	-116
508.567	-418
508.692	-358
508.816	-338
508.94	-212
509.065	-434
509.189	-71
509.313	-59
509.437	-5
509.562	-235
509.686	-155
509.81	-206
509.935	-75
510.059	39
510.183	-331
510.307	-367
510.431	-15
510.556	-185
510.68	-261
510.804	-421
510.928	-190
511.053	-389
511.177	-383
511.301	-170
511.425	-270
511.549	-158
511.674	-173
511.798	-192
511.922	-78
512.046	113
512.17	-224
512.294	-368
512.419	-141
512.543	-68
512.667	-219
512.791	-291
512.915	-111
513.039	-209
513.163	-68
513.288	100
513.412	-257
513.536	38
513.66	-299
513.784	-204
513.908	-112
514.032	-144
514.156	-11
514.28	-44
514.404	-222
514.528	-190
514.653	-61
514.777	10
514.901	-85
515.025	88
515.149	-205
515.273	-124
515.397	-205
515.521	-194
515.645	-223
515.769	-327
515.893	-273
516.017	-253
516.141	-424
516.265	-242
516.389	-261
516.513	-184
516.637	-284
516.761	-468
516.885	-266
517.009	-213
517.133	-87
517.257	-251
517.381	-30
517.505	-11
517.629	71
517.753	-223
517.877	-370
518.001	-252
518.125	-240
518.248	-78
518.372	-180
518.496	-382
518.62	-131
518.744	-184
518.868	-125
518.992	-161
519.116	-294
519.24	403
519.364	2
519.488	-175
519.611	-410
519.735	-207
519.859	-236
519.983	-53
520.107	-250
520.231	-13
520.355	-178
520.478	-297
520.602	-340
520.726	80
520.85	-236
520.974	-11
521.098	-281
521.221	-328
521.345	11
521.469	-277
521.593	-204
521.717	59
521.84	-170
521.964	-292
522.088	-229
522.212	-222
522.335	-389
522.459	-280
522.583	189
522.707	-350
522.83	-435
522.954	-310
523.078	-300
523.202	-27
523.325	-245
523.449	-178
523.573	-142
523.697	-317
523.82	-201
523.944	-223
524.068	-198
524.191	-243
524.315	-406
524.439	-151
524.562	1
524.686	-261
524.81	-324
524.933	-280
525.057	-245
525.181	-99
525.304	-360
525.428	103
525.552	-370
525.675	-167
525.799	-306
525.923	-154
526.046	-69
526.17	-443
526.293	-350
526.417	-156
526.541	-10
526.664	-259
526.788	-225
526.911	-62
527.035	-364
527.159	-262
527.282	-278
527.406	-283
527.529	-48
527.653	-389
527.776	-139
527.9	-278
528.024	-291
528.147	-246
528.271	22
528.394	-11
528.518	7
528.641	-385
528.765	-115
528.888	-154
529.012	-106
529.135	-241
529.259	49
529.382	-237
529.506	-314
529.629	-97
529.753	-383
529.876	119
530	39
530.123	-164
530.247	-337
530.37	-289
530.493	-180
530.617	-331
530.74	30
530.864	-40
530.987	-395
531.111	-96
531.234	-309
531.357	-8
531.481	-5
531.604	30
531.728	-376
531.851	-142
531.974	-96
532.098	-231
532.221	-288
532.345	-218
532.468	-361
532.591	188
532.715	-201
532.838	-253
532.961	-218
533.085	-308
533.208	-152
533.331	-388
533.455	-20
533.578	-255
533.701	-124
533.825	21
533.948	-251
534.071	-270
534.195	-65
534.318	-350
534.441	-273
534.564	-81
534.688	-268
534.811	-22
534.934	-200
535.058	-143
535.181	32
535.304	-55
535.427	-317
535.551	-396
535.674	-218
535.797	-51
535.92	-20
536.043	-349
536.167	-350
536.29	-92
536.413	-136
536.536	-334
536.66	-296
536.783	-130
536.906	-165
537.029	-294
537.152	-262
537.275	-201
537.399	95
537.522	-439
537.645	-221
537.768	-245
537.891	-109
538.014	-178
538.138	-263
538.261	-269
538.384	-158
538.507	-351
538.63	-242
538.753	118
538.876	-125
538.999	-343
539.123	-100
539.246	166
539.369	224
539.492	-294
539.615	-358
539.738	167
539.861	-258
539.984	-191
540.107	-129
540.23	-267
540.353	-325
540.476	-467
540.599	-79
540.722	-366
540.846	-151
540.969	-427
541.092	-142
541.215	-331
541.338	-102
541.461	-340
541.584	-191
541.707	-150
541.83	-288
541.953	-139
542.076	-111
542.199	-165
542.322	113
542.445	135
542.567	-250
542.69	-148
542.813	-228
542.936	-48
543.059	-173
543.182	237
543.305	69
543.428	-152
543.551	-220
543.674	105
543.797	-75
543.92	-207
544.043	273
544.166	-304
544.288	-212
544.411	-106
544.534	-318
544.657	-148
544.78	-237
544.903	-94
545.026	-217
545.149	-335
545.271	-356
545.394	-256
545.517	-412
545.64	365
545.763	-215
545.886	-287
546.008	-120
546.131	-42
546.254	-202
546.377	-403
546.5	-53
546.623	-53
546.745	-353
546.868	-220
546.991	30
547.114	-174
547.236	-192
547.359	-305
547.482	-131
547.605	-272
547.728	-246
547.85	-322
547.973	-294
548.096	-215
548.219	-91
548.341	-229
548.464	-373
548.587	-182
548.709	-233
548.832	-146
548.955	243
549.078	-4
549.2	-284
549.323	-223
549.446	177
549.568	-175
549.691	-72
549.814	-28
549.936	-277
550.059	-222
550.182	-349
550.304	-423
550.427	-139
550.55	-268
550.672	-310
550.795	274
550.917	-306
551.04	-196
551.163	-131
551.285	43
551.408	25
551.531	330
551.653	-356
551.776	-124
551.898	-87
552.021	-113
552.143	-189
552.266	-204
552.389	-188
552.511	-360
552.634	-376
552.756	-316
552.879	218
553.001	28
553.124	-395
553.246	-299
553.369	26
553.492	-178
553.614	29
553.737	-488
553.859	-53
553.982	2
554.104	-147
554.227	-329
554.349	-203
554.472	-207
554.594	-485
554.716	2
554.839	-42
554.961	-118
555.084	-343
555.206	-151
555.329	-359
555.451	-361
555.574	-77
555.696	-316
555.819	-162
555.941	-164
556.063	-40
556.186	-197
556.308	-95
556.431	199
556.553	-60
556.675	-294
556.798	-215
556.92	-38
557.043	-271
557.165	-374
557.287	-9
557.41	-215
557.532	-147
557.654	-259
557.777	-5
557.899	-161
558.021	-223
558.144	46
558.266	49
558.388	241
558.511	-223
558.633	-187
558.755	-245
558.878	-307
559	-54
559.122	-431
559.244	-280
559.367	-178
559.489	0
559.611	113
559.734	-158
559.856	-149
559.978	-193
560.1	-173
560.223	-195
560.345	81
560.467	-385
560.589	-224
560.712	-235
560.834	151
560.956	-330
561.078	-222
561.2	-111
561.323	64
561.445	-383
561.567	-281
561.689	-340
561.811	-78
561.934	-240
562.056	-179
562.178	-99
562.3	-234
562.422	-87
562.544	-159
562.666	24
562.789	-116
562.911	-155
563.033	-75
563.155	-28
563.277	-258
563.399	-462
563.521	-220
563.643	-316
563.766	-185
563.888	8
564.01	-140
564.132	-335
564.254	-352
564.376	54
564.498	-140
564.62	92
564.742	-162
564.864	-410
564.986	-128
565.108	259
565.23	-287
565.352	-49
565.474	-99
565.597	152
565.719	122
565.841	-358
565.963	-94
566.085	-127
566.207	-212
566.329	26
566.451	42
566.573	-218
566.695	-210
566.817	149
566.938	-347
567.06	-186
567.182	-134
567.304	-192
567.426	-351
567.548	35
567.67	-123
567.792	-169
567.914	-298
568.036	-205
568.158	-145
568.28	-324
568.402	-42
568.524	-194
568.646	-293
568.767	-235
568.889	19
569.011	-201
569.133	-258
569.255	-390
569.377	-336
569.499	-105
569.621	-241
569.742	192
569.864	11
569.986	273
570.108	-30
570.23	-356
570.352	86
570.473	-102
570.595	-194
570.717	-340
570.839	-156
570.961	7
571.082	-206
571.204	-301
571.326	-271
571.448	-2
571.57	45
571.691	-140
571.813	-118
571.935	22
572.057	-133
572.178	-310
572.3	83
572.422	117
572.544	175
572.665	-251
572.787	-328
572.909	132
573.031	-39
573.152	-345
573.274	-57
573.396	-45
573.517	-44
573.639	-437
573.761	-309
573.882	-157
574.004	-35
574.126	-290
574.247	-58
574.369	-22
574.491	-144
574.612	-307
574.734	-166
574.856	-149
574.977	-31
575.099	-160
575.221	-131
575.342	-173
575.464	-103
575.585	-108
575.707	-288
575.829	88
575.95	62
576.072	-246
576.193	-318
576.315	-206
576.437	-176
576.558	-204
576.68	-197
576.801	214
576.923	-324
577.044	64
577.166	-395
577.287	-119
577.409	-240
577.531	-177
577.652	-58
577.774	-388
577.895	-144
578.017	-297
578.138	-260
578.26	-178
578.381	-77
578.503	-286
578.624	-264
578.746	-364
578.867	-192
578.988	-130
579.11	114
579.231	-77
579.353	-221
579.474	-162
579.596	-244
579.717	-125
579.839	-114
579.96	-425
580.081	-63
580.203	-189
580.324	-107
580.446	-47
580.567	-156
580.688	172
580.81	-319
580.931	-215
581.053	-398
581.174	-150
581.295	-230
581.417	-64
581.538	-55
581.659	-49
581.781	-159
581.902	-252
582.024	-328
582.145	-319
582.266	-279
582.388	-203
582.509	-343
582.63	-140
582.751	-244
582.873	-186
582.994	-231
583.115	-181
583.237	-108
583.358	-253
583.479	-415
583.6	24
583.722	-162
583.843	-346
583.964	73
584.086	-239
584.207	-84
584.328	-341
584.449	-111
584.57	-135
584.692	-150
584.813	815
584.934	-128
585.055	-307
585.177	-34
585.298	-119
585.419	-360
585.54	146
585.661	-12
585.783	-140
585.904	-287
586.025	73
586.146	-285
586.267	-258
586.388	-211
586.51	286
586.631	-304
586.752	-335
586.873	-251
586.994	-344
587.115	-329
587.236	-279
587.357	-410
587.479	-272
587.6	39
587.721	-255
587.842	-307
587.963	132
588.084	81
588.205	-327
588.326	-220
588.447	-146
588.568	-176
588.689	-150
588.81	-128
588.931	-164
589.052	-252
589.174	-289
589.295	-94
589.416	-95
589.537	54
589.658	-238
589.779	-392
589.9	44
590.021	-216
590.142	-254
590.263	-406
590.384	-162
590.505	184
590.626	-297
590.747	-153
590.867	-47
590.988	-78
591.109	-217
591.23	30
591.351	16
591.472	-144
591.593	-255
591.714	-140
591.835	-248
591.956	-211
592.077	-400
592.198	-202
592.319	-120
592.44	-34
592.56	-260
592.681	-376
592.802	-81
592.923	-187
593.044	-296
593.165	-318
593.286	-77
593.407	-293
593.527	-7
593.648	-310
593.769	-65
593.89	73
594.011	-174
594.132	-262
594.252	-107
594.373	-298
594.494	-410
594.615	-202
594.736	-224
594.856	69
594.977	-328
595.098	-115
595.219	-304
595.34	-120
595.46	-358
595.581	171
595.702	-152
595.823	-343
595.943	-123
596.064	-181
596.185	116
596.306	-415
596.426	-311
596.547	-355
596.668	-80
596.788	-94
596.909	-168
597.03	-92
597.151	-142
597.271	-268
597.392	-222
597.513	-86
597.633	0
597.754	-110
597.875	-184
597.995	59
598.116	-104
598.237	-207
598.357	-265
598.478	-290
598.599	189
598.719	-173
598.84	-349
598.96	-276
599.081	-151
599.202	-215
599.322	-304
599.443	-303
599.563	-51
599.684	28
599.805	-263
599.925	-358
600.046	200
600.166	-230
600.287	-109
600.407	-162
600.528	37
600.649	-41
600.769	-159
600.89	-357
601.01	-23
601.131	-240
601.251	120
601.372	-137
601.492	-256
601.613	-257
601.733	-268
601.854	224
601.974	284
602.095	132
602.215	-337
602.336	-343
602.456	239
602.577	-249
602.697	680
602.817	1
602.938	-123
603.058	-59
603.179	-381
603.299	-326
603.42	-344
603.54	-80
603.66	-344
603.781	-109
603.901	-210
604.022	92
604.142	-168
604.262	-160
604.383	-265
604.503	78
604.624	-299
604.744	-100
604.864	-59
604.985	-221
605.105	-122
605.225	-146
605.346	-119
605.466	-23
605.586	165
605.707	298
605.827	-327
605.947	-205
606.068	-219
606.188	-210
606.308	-252
606.429	38
606.549	-239
606.669	-355
606.789	-278
606.91	-56
607.03	-282
607.15	-253
607.27	-89
607.391	6
607.511	-295
607.631	-292
607.751	172
607.872	2
607.992	-348
608.112	16
608.232	-257
608.353	-294
608.473	-232
608.593	78
608.713	270
608.833	-130
608.954	-310
609.074	-237
609.194	-311
609.314	190
609.434	-59
609.554	-185
609.675	-54
609.795	-264
609.915	-282
610.035	269
610.155	-168
610.275	-202
610.395	-37
610.516	-363
610.636	-110
610.756	-77
610.876	-39
610.996	-313
611.116	181
611.236	-338
611.356	-284
611.476	-148
611.596	-106
611.716	118
611.836	-326
611.957	-325
612.077	-145
612.197	-43
612.317	-290
612.437	62
612.557	54
612.677	-170
612.797	-141
612.917	-370
613.037	-22
613.157	-147
613.277	-120
613.397	108
613.517	136
613.637	-257
613.757	-190
613.877	-279
613.997	-86
614.117	-235
614.237	-201
614.356	-143
614.476	40
614.596	33
614.716	-214
614.836	-162
614.956	-5
615.076	-115
615.196	-345
615.316	-147
615.436	-30
615.556	135
615.676	176
615.795	-102
615.915	-136
616.035	-235
616.155	-200
616.275	-284
616.395	-221
616.515	-7
616.635	-422
616.754	-436
616.874	-16
616.994	-129
617.114	217
617.234	47
617.354	23
617.473	340
617.593	-222
617.713	-155
617.833	-69
617.953	-75
618.072	-481
618.192	-278
618.312	88
618.432	75
618.551	-283
618.671	-267
618.791	-20
618.911	-97
619.03	-221
619.15	-142
619.27	-186
619.39	-222
619.509	-199
619.629	-199
619.749	-282
619.868	-104
619.988	-376
620.108	-236
620.228	694
620.347	-96
620.467	-295
620.587	-326
620.706	62
620.826	-274
620.946	-314
621.065	-15
621.185	302
621.305	-218
621.424	-218
621.544	-404
621.663	-51
621.783	-200
621.903	210
622.022	-311
622.142	-149
622.261	147
622.381	-140
622.501	-79
622.62	-190
622.74	-128
622.859	-211
622.979	58
623.099	-194
623.218	-24
623.338	105
623.457	-86
623.577	-220
623.696	-59
623.816	-397
623.935	-316
624.055	-243
624.174	-126
624.294	-175
624.413	-362
624.533	-51
624.652	65
624.772	-288
624.891	-398
625.011	-10
625.13	-207
625.25	-376
625.369	-262
625.489	-191
625.608	-267
625.728	-162
625.847	-150
625.966	-287
626.086	-234
626.205	-346
626.325	-94
626.444	-120
626.564	157
626.683	18
626.802	-9
626.922	114
627.041	-26
627.161	-219
627.28	-3
627.399	9
627.519	-121
627.638	-429
627.757	-291
627.877	-151
627.996	-166
628.115	-47
628.235	-57
628.354	-312
628.473	-112
628.593	82
628.712	-120
628.831	-121
628.951	-338
629.07	79
629.189	-122
629.309	-174
629.428	185
629.547	-360
629.666	-55
629.786	-134
629.905	-277
630.024	-49
630.143	-90
630.263	-171
630.382	249
630.501	-245
630.62	-249
630.74	-313
630.859	89
630.978	-208
631.097	-360
631.216	-284
631.336	171
631.455	-294
631.574	-215
631.693	-47
631.812	-155
631.932	-429
632.051	71
632.17	264
632.289	29
632.408	-268
632.527	-156
632.646	-99
632.766	-251
632.885	151
633.004	-373
633.123	-127
633.242	-236
633.361	607
633.48	-281
633.599	-244
633.718	33
633.838	-68
633.957	-386
634.076	-82
634.195	-166
634.314	-21
634.433	-31
634.552	-231
634.671	-82
634.79	201
634.909	13
635.028	-40
635.147	7
635.266	-290
635.385	-108
635.504	-305
635.623	-47
635.742	-372
635.861	-358
635.98	-68
636.099	-231
636.218	-183
636.337	-167
636.456	263
636.575	9
636.694	-109
636.813	-338
636.932	-301
637.051	-102
637.17	-434
637.289	-110
637.408	-315
637.526	-71
637.645	-457
637.764	-369
637.883	-222
638.002	36
638.121	372
638.24	-292
638.359	38
638.478	-207
638.597	-333
638.715	345
638.834	-134
638.953	17
639.072	-335
639.191	-409
639.31	37
639.428	-146
639.547	-107
639.666	-24
639.785	-22
639.904	-107
640.023	-352
640.141	-209
640.26	-169
640.379	-35
640.498	-411
640.616	-122
640.735	-115
640.854	71
640.973	-319
641.092	-17
641.21	-23
641.329	-158
641.448	-37
641.567	189
641.685	-119
641.804	-162
641.923	-143
642.041	-263
642.16	-176
642.279	86
642.398	-213
642.516	-286
642.635	123
642.754	-165
642.872	12
642.991	67
643.11	-208
643.228	-272
643.347	-362
643.466	-390
643.584	4
643.703	254
643.821	-138
643.94	-104
644.059	-42
644.177	62
644.296	-332
644.415	-236
644.533	-108
644.652	-3
644.77	-370
644.889	-330
645.008	27
645.126	-244
645.245	-17
645.363	25
645.482	-80
645.6	-155
645.719	-182
645.837	-248
645.956	-52
646.074	-294
646.193	-288
646.312	-17
646.43	153
646.549	238
646.667	-443
646.786	-336
646.904	31
647.023	-4
647.141	-342
647.26	-47
647.378	439
647.496	-173
647.615	-71
647.733	-148
647.852	219
647.97	-206
648.089	-19
648.207	-49
648.326	135
648.444	-157
648.562	-166
648.681	-106
648.799	-107
648.918	-71
649.036	-141
649.154	-267
649.273	57
649.391	-162
649.51	-296
649.628	-344
649.746	166
649.865	-207
649.983	-306
650.101	-142
650.22	-121
650.338	-198
650.456	-228
650.575	-236
650.693	-271
650.811	-48
650.93	-369
651.048	1077
651.166	317
651.285	-123
651.403	-29
651.521	-126
651.639	-122
651.758	-125
651.876	192
651.994	-331
652.112	108
652.231	-124
652.349	-271
652.467	-469
652.585	-103
652.704	-10
652.822	-396
652.94	-378
653.058	-47
653.176	-215
653.295	-142
653.413	-57
653.531	-196
653.649	-128
653.767	-322
653.886	-327
654.004	-232
654.122	161
654.24	-394
654.358	-324
654.476	-155
654.594	186
654.713	-220
654.831	-428
654.949	-175
655.067	-35
655.185	-376
655.303	-262
655.421	-159
655.539	107
655.658	-146
655.776	-230
655.894	5
656.012	182
656.13	-438
656.248	-231
656.366	-271
656.484	-177
656.602	-323
656.72	-312
656.838	-43
656.956	-149
657.074	-66
657.192	-116
657.31	-238
657.428	-153
657.546	-136
657.664	-119
657.782	-131
657.9	102
658.018	-234
658.136	-221
658.254	33
658.372	130
658.49	-331
658.608	-296
658.726	-13
658.844	-6
658.962	-275
659.08	-386
659.198	-24
659.316	-97
