Data from HR4D30811__8__00008.txt Node

Date: Fri Jan 26 16:32:30 MST 2024
User: Brock
Spectrometer: HR4D3081
Trigger mode: 4
Integration Time (sec): 8.000000E0
Scans to average: 1
Electric dark correction enabled: true
Nonlinearity correction enabled: false
Boxcar width: 0
XAxis mode: Wavelengths
Number of Pixels in Spectrum: 3648
>>>>>Begin Spectral Data<<<<<
197.25	-1193
197.385	-1193
197.519	-1193
197.653	-1215
197.787	173
197.922	-131
198.056	75
198.19	-1
198.324	27
198.459	-207
198.593	415
198.727	-33
198.861	-109
198.996	199
199.13	-263
199.264	-217
199.398	-40
199.533	285
199.667	125
199.801	-81
199.935	-270
200.07	-41
200.204	10
200.338	-167
200.472	-194
200.606	-342
200.741	-181
200.875	-128
201.009	-122
201.143	-239
201.277	75
201.412	120
201.546	224
201.68	172
201.814	-197
201.948	50
202.082	-89
202.217	-328
202.351	-127
202.485	-10
202.619	-258
202.753	-317
202.887	279
203.021	104
203.156	216
203.29	10
203.424	-71
203.558	-187
203.692	-70
203.826	-309
203.96	-111
204.094	149
204.229	-170
204.363	-233
204.497	-338
204.631	-288
204.765	-190
204.899	-169
205.033	-159
205.167	-234
205.301	29
205.435	-306
205.569	-101
205.704	-101
205.838	-308
205.972	-170
206.106	520
206.24	-177
206.374	-239
206.508	20
206.642	2
206.776	-132
206.91	198
207.044	-9
207.178	104
207.312	-26
207.446	-134
207.58	-159
207.714	-284
207.848	166
207.982	-369
208.116	18
208.25	-234
208.384	-188
208.518	-188
208.652	-269
208.786	-265
208.92	224
209.054	-59
209.188	-296
209.322	-110
209.456	-107
209.59	-295
209.724	-81
209.858	-51
209.992	-118
210.126	-176
210.26	-158
210.394	-61
210.528	-39
210.662	-211
210.796	-188
210.929	122
211.063	-20
211.197	-76
211.331	-12
211.465	-202
211.599	46
211.733	115
211.867	-225
212.001	-195
212.135	-45
212.269	-252
212.402	-213
212.536	72
212.67	-145
212.804	-243
212.938	89
213.072	-201
213.206	-95
213.34	-155
213.473	-178
213.607	91
213.741	-287
213.875	-304
214.009	-215
214.143	-154
214.277	-150
214.41	-248
214.544	248
214.678	138
214.812	267
214.946	-254
215.08	-161
215.213	-236
215.347	-119
215.481	-84
215.615	-342
215.749	19
215.882	-241
216.016	-320
216.15	66
216.284	156
216.418	14
216.551	66
216.685	32
216.819	-267
216.953	-178
217.086	241
217.22	-157
217.354	3
217.488	47
217.621	101
217.755	-51
217.889	-154
218.023	-65
218.156	72
218.29	71
218.424	176
218.558	-230
218.691	-373
218.825	-129
218.959	372
219.092	-151
219.226	-326
219.36	-291
219.494	-75
219.627	-214
219.761	-207
219.895	-115
220.028	-329
220.162	526
220.296	120
220.429	-35
220.563	-35
220.697	0
220.83	-228
220.964	-183
221.098	-275
221.231	-274
221.365	94
221.499	-211
221.632	-250
221.766	27
221.9	-122
222.033	67
222.167	80
222.3	-209
222.434	-18
222.568	254
222.701	-166
222.835	-138
222.968	-263
223.102	-241
223.236	-266
223.369	18
223.503	4
223.636	-244
223.77	-159
223.904	-19
224.037	-149
224.171	109
224.304	12
224.438	-206
224.571	-104
224.705	165
224.839	-73
224.972	-334
225.106	-16
225.239	-90
225.373	69
225.506	-63
225.64	46
225.773	-143
225.907	-211
226.04	-324
226.174	-89
226.307	-73
226.441	-141
226.575	8
226.708	121
226.842	-130
226.975	-164
227.109	-225
227.242	-4
227.375	36
227.509	-45
227.642	-177
227.776	30
227.909	36
228.043	-222
228.176	215
228.31	-272
228.443	319
228.577	-55
228.71	-132
228.844	-5
228.977	-267
229.111	-142
229.244	52
229.377	-328
229.511	-47
229.644	-189
229.778	-190
229.911	-211
230.044	-139
230.178	-33
230.311	-241
230.445	4
230.578	-205
230.711	-95
230.845	334
230.978	30
231.112	-241
231.245	-255
231.378	-245
231.512	24
231.645	-412
231.779	-330
231.912	-45
232.045	23
232.179	-186
232.312	-160
232.445	70
232.579	226
232.712	136
232.845	-213
232.979	-372
233.112	26
233.245	-94
233.379	-298
233.512	-39
233.645	-262
233.779	-245
233.912	41
234.045	-180
234.179	42
234.312	-154
234.445	32
234.578	-38
234.712	-8
234.845	18
234.978	-155
235.112	-60
235.245	108
235.378	-186
235.511	-16
235.645	-18
235.778	-53
235.911	-180
236.044	-320
236.178	279
236.311	-271
236.444	-265
236.577	-240
236.711	-69
236.844	-410
236.977	-144
237.11	-200
237.243	19
237.377	-294
237.51	-250
237.643	914
237.776	-152
237.909	-143
238.043	-6
238.176	-217
238.309	-100
238.442	-336
238.575	-113
238.709	415
238.842	22
238.975	-33
239.108	169
239.241	-303
239.374	-237
239.508	-184
239.641	194
239.774	327
239.907	-91
240.04	-283
240.173	22
240.306	211
240.44	-177
240.573	130
240.706	-150
240.839	7
240.972	-86
241.105	-48
241.238	13
241.371	-44
241.504	-40
241.638	-140
241.771	-60
241.904	-166
242.037	44
242.17	-201
242.303	-330
242.436	-96
242.569	-127
242.702	-183
242.835	-179
242.968	-41
243.101	-138
243.234	-207
243.367	-279
243.5	-145
243.634	-161
243.767	-319
243.9	-230
244.033	-239
244.166	81
244.299	-346
244.432	-274
244.565	6
244.698	-347
244.831	-187
244.964	-268
245.097	-196
245.23	-19
245.363	126
245.496	-296
245.629	-155
245.762	458
245.895	-268
246.028	-210
246.161	418
246.294	37
246.427	-240
246.559	85
246.692	-69
246.825	-157
246.958	-248
247.091	-305
247.224	-329
247.357	-214
247.49	117
247.623	-201
247.756	-291
247.889	298
248.022	-109
248.155	-269
248.288	-86
248.421	-246
248.553	48
248.686	-243
248.819	76
248.952	-257
249.085	163
249.218	-55
249.351	-132
249.484	146
249.617	-102
249.749	-226
249.882	-253
250.015	-233
250.148	-172
250.281	-264
250.414	-164
250.547	-184
250.679	206
250.812	-93
250.945	21
251.078	-280
251.211	-155
251.344	-294
251.476	-177
251.609	6
251.742	-263
251.875	-75
252.008	-231
252.14	-380
252.273	-119
252.406	155
252.539	-25
252.672	-106
252.804	143
252.937	-255
253.07	-42
253.203	-131
253.335	98
253.468	-361
253.601	-147
253.734	-66
253.866	-172
253.999	372
254.132	-16
254.265	-173
254.397	-165
254.53	-144
254.663	27
254.796	-217
254.928	-263
255.061	-237
255.194	-66
255.327	-319
255.459	-32
255.592	-298
255.725	169
255.857	-213
255.99	-10
256.123	-224
256.255	-258
256.388	-78
256.521	-287
256.653	-293
256.786	-270
256.919	-193
257.051	-250
257.184	-35
257.317	-193
257.449	-238
257.582	-95
257.715	-217
257.847	-232
257.98	-101
258.113	-182
258.245	-148
258.378	-368
258.51	-244
258.643	-250
258.776	33
258.908	-298
259.041	-90
259.174	-189
259.306	-215
259.439	-287
259.571	-201
259.704	-126
259.837	190
259.969	-206
260.102	-253
260.234	189
260.367	62
260.499	-209
260.632	-174
260.765	-214
260.897	-219
261.03	-227
261.162	-81
261.295	-43
261.427	68
261.56	-104
261.692	-251
261.825	-48
261.957	99
262.09	94
262.222	-32
262.355	-259
262.487	-140
262.62	-272
262.752	-93
262.885	-167
263.017	2
263.15	-195
263.282	-87
263.415	-218
263.547	-40
263.68	215
263.812	-324
263.945	-141
264.077	-273
264.21	173
264.342	-284
264.475	-235
264.607	171
264.74	-394
264.872	-119
265.004	130
265.137	45
265.269	332
265.402	-255
265.534	-192
265.667	-170
265.799	70
265.931	-101
266.064	-31
266.196	-161
266.329	-178
266.461	-195
266.593	16
266.726	-341
266.858	-183
266.99	-95
267.123	-139
267.255	-51
267.388	-149
267.52	-242
267.652	-244
267.785	117
267.917	-9
268.049	-154
268.182	380
268.314	45
268.446	-339
268.579	-254
268.711	181
268.843	-216
268.976	-82
269.108	390
269.24	143
269.373	-14
269.505	-162
269.637	-166
269.77	-216
269.902	133
270.034	-281
270.167	13
270.299	-10
270.431	-12
270.563	-182
270.696	-3
270.828	-138
270.96	-91
271.092	-7
271.225	-242
271.357	-109
271.489	-191
271.621	-291
271.754	493
271.886	-220
272.018	-183
272.15	265
272.283	-287
272.415	-169
272.547	50
272.679	57
272.811	-97
272.944	-128
273.076	-330
273.208	-48
273.34	-97
273.473	-113
273.605	40
273.737	-270
273.869	-54
274.001	-419
274.133	2
274.266	-207
274.398	1441
274.53	41
274.662	113
274.794	-9
274.926	43
275.059	-205
275.191	-31
275.323	-270
275.455	89
275.587	-237
275.719	-183
275.851	-125
275.983	2
276.116	-37
276.248	117
276.38	-259
276.512	-24
276.644	-153
276.776	-254
276.908	-59
277.04	-155
277.172	40
277.304	-214
277.437	-10
277.569	-211
277.701	-259
277.833	-95
277.965	-179
278.097	58
278.229	-217
278.361	-167
278.493	100
278.625	185
278.757	-3
278.889	-269
279.021	-183
279.153	512
279.285	-234
279.417	542
279.549	30
279.681	-112
279.813	-199
279.945	25
280.077	-200
280.209	1070
280.341	-300
280.473	-151
280.605	70
280.737	-14
280.869	199
281.001	-93
281.133	-346
281.265	-31
281.397	-153
281.529	278
281.661	-288
281.793	-355
281.925	-221
282.057	-127
282.189	-186
282.321	-25
282.453	1
282.585	-263
282.717	131
282.849	-97
282.98	-165
283.112	-232
283.244	-23
283.376	-267
283.508	-355
283.64	-271
283.772	79
283.904	61
284.036	-303
284.168	129
284.299	-34
284.431	-15
284.563	-140
284.695	-164
284.827	-257
284.959	-19
285.091	-239
285.222	-296
285.354	-222
285.486	-136
285.618	-258
285.75	-144
285.882	149
286.013	33
286.145	-41
286.277	5
286.409	80
286.541	74
286.673	-246
286.804	-225
286.936	-87
287.068	-196
287.2	-254
287.332	285
287.463	-317
287.595	-80
287.727	374
287.859	-122
287.99	-146
288.122	-198
288.254	42
288.386	-182
288.517	-283
288.649	-183
288.781	-12
288.913	-19
289.044	-309
289.176	195
289.308	-175
289.44	-349
289.571	-213
289.703	-295
289.835	50
289.967	-278
290.098	-322
290.23	-306
290.362	108
290.493	-340
290.625	-173
290.757	-172
290.888	-154
291.02	-10
291.152	-24
291.283	-14
291.415	-174
291.547	-279
291.678	-249
291.81	-29
291.942	255
292.073	-19
292.205	-289
292.337	75
292.468	515
292.6	-170
292.732	575
292.863	-208
292.995	-342
293.126	44
293.258	135
293.39	-311
293.521	-252
293.653	-325
293.785	61
293.916	-174
294.048	0
294.179	-16
294.311	-246
294.442	20
294.574	-275
294.706	-129
294.837	62
294.969	-94
295.1	-211
295.232	-266
295.363	157
295.495	-186
295.627	-9
295.758	128
295.89	-364
296.021	32
296.153	37
296.284	-119
296.416	-110
296.547	-177
296.679	-79
296.81	-86
296.942	-337
297.073	-262
297.205	-290
297.336	-188
297.468	-224
297.599	-73
297.731	-347
297.862	-154
297.994	-325
298.125	-270
298.257	-140
298.388	7
298.52	-40
298.651	-115
298.782	268
298.914	-270
299.045	-166
299.177	-326
299.308	-307
299.44	-4
299.571	-46
299.702	-181
299.834	-92
299.965	-142
300.097	-257
300.228	-56
300.36	-69
300.491	-92
300.622	-19
300.754	-143
300.885	-221
301.017	-49
301.148	-203
301.279	-360
301.411	-11
301.542	-30
301.673	-67
301.805	-14
301.936	-228
302.067	-147
302.199	-185
302.33	-275
302.461	307
302.593	-6
302.724	-31
302.855	-314
302.987	-134
303.118	-312
303.249	-358
303.381	-123
303.512	-222
303.643	-243
303.775	111
303.906	-270
304.037	-258
304.169	-230
304.3	-176
304.431	-309
304.562	-231
304.694	-176
304.825	-63
304.956	114
305.087	-213
305.219	-2
305.35	-78
305.481	-229
305.612	22
305.744	-18
305.875	-174
306.006	487
306.137	-224
306.269	-84
306.4	44
306.531	87
306.662	-154
306.794	125
306.925	-226
307.056	-308
307.187	-45
307.318	-131
307.45	-148
307.581	-232
307.712	-253
307.843	-127
307.974	-74
308.105	117
308.237	-124
308.368	-311
308.499	-148
308.63	-18
308.761	-143
308.892	-125
309.024	-137
309.155	-205
309.286	-203
309.417	-269
309.548	-166
309.679	-147
309.81	-393
309.941	415
310.073	-33
310.204	-338
310.335	-47
310.466	-183
310.597	-279
310.728	-203
310.859	312
310.99	308
311.121	-98
311.252	-122
311.383	-269
311.514	-36
311.646	-191
311.777	-61
311.908	-54
312.039	-159
312.17	-309
312.301	-126
312.432	-204
312.563	-350
312.694	-55
312.825	-152
312.956	-215
313.087	40
313.218	56
313.349	-168
313.48	-364
313.611	-139
313.742	-89
313.873	20
314.004	-45
314.135	-193
314.266	-92
314.397	-163
314.528	-291
314.659	-281
314.79	-226
314.921	38
315.052	28
315.183	-265
315.314	-330
315.445	-12
315.576	-52
315.707	-144
315.838	-197
315.968	-44
316.099	-289
316.23	-311
316.361	91
316.492	-132
316.623	53
316.754	167
316.885	-379
317.016	-315
317.147	-347
317.278	59
317.408	-241
317.539	-298
317.67	-299
317.801	-52
317.932	-165
318.063	-214
318.194	-174
318.325	-18
318.455	-356
318.586	-188
318.717	-47
318.848	-344
318.979	75
319.11	258
319.24	53
319.371	63
319.502	-124
319.633	-224
319.764	-123
319.895	-268
320.025	-108
320.156	-302
320.287	-434
320.418	-257
320.549	-102
320.679	-336
320.81	126
320.941	-370
321.072	-317
321.202	-40
321.333	255
321.464	-419
321.595	-246
321.726	218
321.856	-339
321.987	-156
322.118	-219
322.249	-23
322.379	-74
322.51	-7
322.641	-94
322.771	-326
322.902	-96
323.033	-104
323.164	658
323.294	-176
323.425	-219
323.556	-229
323.686	-114
323.817	276
323.948	-45
324.078	-142
324.209	149
324.34	-177
324.47	175
324.601	-222
324.732	-81
324.862	5
324.993	-230
325.124	-433
325.254	-72
325.385	-90
325.516	454
325.646	340
325.777	-166
325.908	-183
326.038	42
326.169	-146
326.299	-82
326.43	105
326.561	-155
326.691	-157
326.822	-260
326.952	-203
327.083	-78
327.214	-253
327.344	-70
327.475	-24
327.605	-54
327.736	-138
327.867	-273
327.997	-158
328.128	-54
328.258	-335
328.389	231
328.519	-268
328.65	17
328.78	-242
328.911	-58
329.041	88
329.172	-347
329.303	-219
329.433	-187
329.564	-252
329.694	-277
329.825	-227
329.955	-69
330.086	423
330.216	-167
330.347	-288
330.477	-143
330.608	-118
330.738	-146
330.868	-322
330.999	-158
331.129	110
331.26	-236
331.39	-216
331.521	136
331.651	23
331.782	-349
331.912	-285
332.043	-280
332.173	44
332.303	-320
332.434	109
332.564	-8
332.695	-215
332.825	-351
332.956	-233
333.086	-96
333.216	-279
333.347	-27
333.477	-408
333.608	-103
333.738	-25
333.868	-139
333.999	-86
334.129	86
334.259	-102
334.39	-223
334.52	50
334.65	-183
334.781	131
334.911	-213
335.042	-274
335.172	-27
335.302	-133
335.433	215
335.563	-283
335.693	27
335.824	268
335.954	-390
336.084	-32
336.214	-44
336.345	287
336.475	40
336.605	-229
336.736	328
336.866	-113
336.996	-187
337.126	-299
337.257	-96
337.387	-350
337.517	-229
337.648	-336
337.778	151
337.908	78
338.038	-6
338.169	-171
338.299	198
338.429	-43
338.559	-234
338.69	-201
338.82	335
338.95	-31
339.08	-461
339.21	-311
339.341	-121
339.471	-1
339.601	-110
339.731	-37
339.861	-162
339.992	-140
340.122	-141
340.252	-250
340.382	-208
340.512	-98
340.642	142
340.773	-116
340.903	-297
341.033	-101
341.163	-30
341.293	101
341.423	-254
341.554	-321
341.684	-28
341.814	-146
341.944	-168
342.074	-99
342.204	-182
342.334	130
342.464	-291
342.595	-193
342.725	-308
342.855	-71
342.985	-143
343.115	-313
343.245	-355
343.375	-27
343.505	-107
343.635	-25
343.765	-225
343.895	-389
344.025	29
344.155	-284
344.286	-174
344.416	-79
344.546	108
344.676	-118
344.806	114
344.936	-65
345.066	156
345.196	-254
345.326	-333
345.456	85
345.586	-252
345.716	-276
345.846	31
345.976	-369
346.106	-98
346.236	55
346.366	10
346.496	-169
346.626	-175
346.756	-221
346.886	-236
347.016	-350
347.146	-230
347.276	-285
347.406	-219
347.536	-44
347.666	89
347.795	-245
347.925	-178
348.055	93
348.185	-172
348.315	-196
348.445	91
348.575	-186
348.705	-262
348.835	-275
348.965	-180
349.095	-18
349.225	263
349.354	-261
349.484	-165
349.614	-170
349.744	-250
349.874	-259
350.004	-339
350.134	-282
350.264	-353
350.393	-289
350.523	131
350.653	-313
350.783	34
350.913	136
351.043	-232
351.173	-182
351.302	-35
351.432	179
351.562	-81
351.692	-113
351.822	-181
351.951	-359
352.081	154
352.211	-135
352.341	183
352.471	116
352.6	-144
352.73	-235
352.86	-148
352.99	-25
353.12	-71
353.249	-24
353.379	-252
353.509	51
353.639	-307
353.768	-86
353.898	-231
354.028	-312
354.158	-204
354.287	-188
354.417	-279
354.547	-282
354.677	-371
354.806	-127
354.936	-16
355.066	-206
355.195	-36
355.325	-48
355.455	-248
355.584	167
355.714	-267
355.844	144
355.974	-13
356.103	-123
356.233	-148
356.363	27
356.492	-289
356.622	-311
356.752	-28
356.881	-364
357.011	72
357.14	97
357.27	-149
357.4	75
357.529	-155
357.659	113
357.789	31
357.918	-315
358.048	-335
358.177	-126
358.307	-247
358.437	-94
358.566	-259
358.696	72
358.825	114
358.955	-299
359.085	15
359.214	-418
359.344	-116
359.473	-287
359.603	-181
359.733	-193
359.862	-327
359.992	51
360.121	-182
360.251	3
360.38	-360
360.51	61
360.639	-177
360.769	-85
360.898	64
361.028	32
361.157	-93
361.287	-64
361.416	-292
361.546	-162
361.675	-178
361.805	-180
361.934	-18
362.064	-186
362.193	-187
362.323	-300
362.452	77
362.582	-270
362.711	-158
362.841	13
362.97	-35
363.1	-276
363.229	-324
363.359	-171
363.488	-248
363.617	-108
363.747	-114
363.876	-377
364.006	-46
364.135	-149
364.265	-154
364.394	-191
364.523	235
364.653	-276
364.782	-17
364.912	-288
365.041	-297
365.17	-278
365.3	15
365.429	156
365.558	-196
365.688	-229
365.817	-287
365.947	-88
366.076	-85
366.205	-76
366.335	-356
366.464	-264
366.593	94
366.723	-174
366.852	-152
366.981	-127
367.111	-276
367.24	-164
367.369	-145
367.499	505
367.628	114
367.757	-188
367.886	-45
368.016	92
368.145	-120
368.274	-117
368.404	-324
368.533	-92
368.662	13
368.791	-209
368.921	-376
369.05	122
369.179	-100
369.308	301
369.438	-337
369.567	-367
369.696	-144
369.825	-30
369.955	-178
370.084	-38
370.213	-105
370.342	-293
370.472	-279
370.601	392
370.73	9
370.859	-408
370.988	-175
371.118	-291
371.247	-7
371.376	127
371.505	-105
371.634	-59
371.763	-130
371.893	-254
372.022	-187
372.151	-259
372.28	-346
372.409	-391
372.538	-197
372.667	-76
372.797	108
372.926	-354
373.055	-44
373.184	-145
373.313	-268
373.442	-59
373.571	-245
373.7	-164
373.83	-84
373.959	-427
374.088	-170
374.217	54
374.346	-185
374.475	-368
374.604	-266
374.733	244
374.862	-142
374.991	-292
375.12	-65
375.249	-61
375.378	-238
375.508	-346
375.637	-337
375.766	54
375.895	-195
376.024	122
376.153	-273
376.282	-147
376.411	-247
376.54	-424
376.669	-69
376.798	-176
376.927	-312
377.056	77
377.185	-70
377.314	40
377.443	274
377.572	-302
377.701	-269
377.83	122
377.959	-28
378.088	1658
378.217	124
378.346	-207
378.474	-366
378.603	-283
378.732	-50
378.861	-189
378.99	-306
379.119	-373
379.248	-79
379.377	-170
379.506	-222
379.635	96
379.764	-99
379.893	-274
380.022	-335
380.15	-102
380.279	-344
380.408	-261
380.537	-176
380.666	-37
380.795	-41
380.924	-161
381.053	-270
381.181	-68
381.31	740
381.439	-283
381.568	-211
381.697	-179
381.826	-154
381.955	-278
382.083	-103
382.212	-346
382.341	21
382.47	-262
382.599	-156
382.727	237
382.856	-25
382.985	-7
383.114	-200
383.243	-229
383.371	-141
383.5	-267
383.629	-274
383.758	-254
383.887	-418
384.015	-77
384.144	-295
384.273	-96
384.402	-64
384.53	-262
384.659	-287
384.788	-282
384.917	-236
385.045	-102
385.174	-146
385.303	-404
385.432	15
385.56	-129
385.689	-203
385.818	-98
385.946	-49
386.075	-244
386.204	-290
386.332	-139
386.461	15
386.59	-34
386.718	-314
386.847	-193
386.976	-210
387.104	-351
387.233	-297
387.362	-121
387.49	-78
387.619	-320
387.748	-166
387.876	115
388.005	-109
388.134	89
388.262	-346
388.391	-257
388.52	-61
388.648	-347
388.777	45
388.905	-261
389.034	-196
389.163	-324
389.291	-136
389.42	15
389.548	69
389.677	-100
389.805	-107
389.934	-44
390.063	-322
390.191	-365
390.32	-268
390.448	-194
390.577	-295
390.705	-323
390.834	-131
390.962	-314
391.091	-279
391.22	91
391.348	119
391.477	-36
391.605	-355
391.734	-224
391.862	-231
391.991	-307
392.119	-300
392.248	-150
392.376	-154
392.505	-207
392.633	-203
392.762	281
392.89	-326
393.018	25
393.147	-196
393.275	-374
393.404	-307
393.532	-200
393.661	-103
393.789	-65
393.918	-111
394.046	-125
394.174	-137
394.303	-361
394.431	-235
394.56	12
394.688	-348
394.817	-377
394.945	79
395.073	14
395.202	-69
395.33	-188
395.459	-176
395.587	80
395.715	41
395.844	-129
395.972	-438
396.1	93
396.229	-291
396.357	-79
396.485	-231
396.614	-278
396.742	71
396.87	-115
396.999	-34
397.127	-325
397.255	-63
397.384	75
397.512	-356
397.64	-280
397.769	-178
397.897	-40
398.025	-165
398.154	-92
398.282	177
398.41	-117
398.538	-82
398.667	-224
398.795	-232
398.923	16
399.052	-200
399.18	-169
399.308	-164
399.436	202
399.565	-324
399.693	-92
399.821	-133
399.949	-209
400.078	298
400.206	-308
400.334	-313
400.462	-163
400.59	-369
400.719	-216
400.847	-294
400.975	-69
401.103	-257
401.231	-108
401.36	-147
401.488	-32
401.616	-223
401.744	-169
401.872	-245
402	-16
402.129	-237
402.257	-255
402.385	-171
402.513	-158
402.641	-205
402.769	-158
402.897	-260
403.026	-342
403.154	-378
403.282	-319
403.41	-185
403.538	140
403.666	-351
403.794	-174
403.922	-101
404.05	-119
404.179	-116
404.307	-82
404.435	-304
404.563	-306
404.691	-365
404.819	425
404.947	-303
405.075	-243
405.203	-348
405.331	-245
405.459	-337
405.587	-83
405.715	-234
405.843	-231
405.971	-96
406.099	128
406.227	-47
406.355	-183
406.483	-381
406.611	-25
406.739	-299
406.867	-308
406.995	-246
407.123	-187
407.251	-400
407.379	-333
407.507	-61
407.635	-156
407.763	-435
407.891	-451
408.019	-11
408.147	-6
408.275	140
408.403	-343
408.531	-363
408.659	162
408.787	-101
408.915	-221
409.043	-240
409.171	59
409.299	33
409.427	77
409.554	-363
409.682	285
409.81	-97
409.938	-224
410.066	24
410.194	-93
410.322	-290
410.45	-219
410.578	-353
410.705	-294
410.833	-106
410.961	45
411.089	313
411.217	-169
411.345	-175
411.473	-283
411.6	-104
411.728	-196
411.856	-349
411.984	-331
412.112	-82
412.239	-96
412.367	-208
412.495	79
412.623	-271
412.751	4
412.878	-386
413.006	-158
413.134	52
413.262	180
413.39	-84
413.517	-61
413.645	51
413.773	-349
413.901	195
414.028	-227
414.156	-167
414.284	-279
414.412	28
414.539	-188
414.667	-241
414.795	-246
414.923	-426
415.05	-194
415.178	-39
415.306	301
415.433	-261
415.561	16
415.689	39
415.816	-239
415.944	157
416.072	-330
416.2	-38
416.327	246
416.455	-272
416.583	-221
416.71	-251
416.838	104
416.966	-338
417.093	-182
417.221	50
417.348	-80
417.476	-345
417.604	-192
417.731	-153
417.859	38
417.987	-83
418.114	-295
418.242	27
418.369	-234
418.497	-347
418.625	144
418.752	-141
418.88	-312
419.007	131
419.135	-104
419.263	-209
419.39	43
419.518	54
419.645	6
419.773	634
419.9	1720
420.028	4193
420.155	4964
420.283	7100
420.41	8049
420.538	8779
420.666	9487
420.793	9672
420.921	8804
421.048	6891
421.176	4691
421.303	2367
421.431	640
421.558	-74
421.686	224
421.813	32
421.941	-149
422.068	-77
422.195	68
422.323	34
422.45	-360
422.578	-107
422.705	-244
422.833	-162
422.96	-256
423.088	-32
423.215	344
423.343	341
423.47	-85
423.597	214
423.725	-132
423.852	-147
423.98	-90
424.107	-362
424.234	-156
424.362	-217
424.489	-242
424.617	517
424.744	-77
424.871	-327
424.999	-135
425.126	110
425.253	-75
425.381	-204
425.508	-314
425.636	26
425.763	-192
425.89	-240
426.018	-364
426.145	-167
426.272	-75
426.4	33
426.527	68
426.654	-285
426.781	-72
426.909	-88
427.036	-114
427.163	-359
427.291	-281
427.418	-187
427.545	-128
427.673	-365
427.8	-373
427.927	-321
428.054	-93
428.182	-187
428.309	-206
428.436	-228
428.563	-324
428.691	-74
428.818	-229
428.945	30
429.072	-338
429.2	-93
429.327	-108
429.454	3
429.581	-148
429.708	-406
429.836	-285
429.963	-222
430.09	-254
430.217	-233
430.344	-305
430.472	-322
430.599	-52
430.726	-243
430.853	-164
430.98	-52
431.107	-293
431.235	-146
431.362	-28
431.489	-110
431.616	214
431.743	86
431.87	-362
431.997	-180
432.125	-113
432.252	-445
432.379	-184
432.506	-67
432.633	-264
432.76	-160
432.887	71
433.014	-230
433.141	-289
433.268	-47
433.395	-262
433.523	-172
433.65	-212
433.777	-197
433.904	-195
434.031	-379
434.158	-95
434.285	18
434.412	-363
434.539	-149
434.666	-312
434.793	-256
434.92	-273
435.047	-20
435.174	-150
435.301	-34
435.428	252
435.555	187
435.682	-79
435.809	-322
435.936	76
436.063	-258
436.19	124
436.317	-255
436.444	28
436.571	-273
436.698	-45
436.825	88
436.952	-30
437.079	-104
437.206	-6
437.333	-303
437.46	-201
437.587	-146
437.714	-324
437.84	-195
437.967	-371
438.094	-402
438.221	59
438.348	-176
438.475	7997
438.602	-326
438.729	-427
438.856	-251
438.983	-299
439.109	-25
439.236	47
439.363	-429
439.49	-264
439.617	-160
439.744	-276
439.871	397
439.997	-254
440.124	-64
440.251	-81
440.378	-245
440.505	-236
440.632	34
440.758	113
440.885	267
441.012	-297
441.139	10
441.266	-337
441.392	-229
441.519	-304
441.646	-359
441.773	-60
441.9	212
442.026	-240
442.153	-130
442.28	-93
442.407	-297
442.533	41
442.66	-34
442.787	-112
442.914	-284
443.04	-254
443.167	-174
443.294	-113
443.421	-104
443.547	-373
443.674	-177
443.801	-68
443.927	35
444.054	391
444.181	64
444.307	61
444.434	-96
444.561	-309
444.688	-399
444.814	11
444.941	-234
445.068	-316
445.194	218
445.321	-292
445.447	170
445.574	-390
445.701	-371
445.827	-176
445.954	-412
446.081	-34
446.207	-297
446.334	-136
446.461	-200
446.587	-443
446.714	-26
446.84	25
446.967	-273
447.094	-217
447.22	58
447.347	-172
447.473	-301
447.6	-98
447.726	-388
447.853	-111
447.98	-154
448.106	-105
448.233	-141
448.359	-243
448.486	-63
448.612	-245
448.739	-66
448.865	41
448.992	231
449.118	-250
449.245	-345
449.371	-303
449.498	-145
449.624	-32
449.751	-118
449.877	-253
450.004	-116
450.13	-161
450.257	-307
450.383	-163
450.51	-391
450.636	-255
450.763	-231
450.889	-254
451.016	-419
451.142	-78
451.269	-270
451.395	252
451.521	-184
451.648	-288
451.774	-109
451.901	-393
452.027	-190
452.154	65
452.28	-201
452.406	-255
452.533	-260
452.659	-331
452.785	-214
452.912	-325
453.038	-342
453.165	-64
453.291	92
453.417	149
453.544	-344
453.67	-220
453.796	73
453.923	-327
454.049	-229
454.175	-257
454.302	-247
454.428	-57
454.554	-87
454.681	-290
454.807	-291
454.933	229
455.06	-126
455.186	-174
455.312	97
455.439	34
455.565	-320
455.691	-329
455.817	4
455.944	75
456.07	-174
456.196	-73
456.322	-421
456.449	-373
456.575	-166
456.701	-261
456.827	-284
456.954	-346
457.08	-283
457.206	-420
457.332	-156
457.459	-373
457.585	-298
457.711	-282
457.837	-25
457.963	-118
458.09	-312
458.216	-319
458.342	-184
458.468	-215
458.594	-166
458.721	-141
458.847	-78
458.973	-378
459.099	-230
459.225	-229
459.351	-213
459.477	-51
459.604	-328
459.73	-222
459.856	-335
459.982	-139
460.108	-428
460.234	-474
460.36	-219
460.486	-35
460.613	-302
460.739	70
460.865	-239
460.991	192
461.117	161
461.243	-293
461.369	-370
461.495	-252
461.621	-171
461.747	-111
461.873	-10
461.999	-309
462.125	-189
462.252	50
462.378	-104
462.504	-47
462.63	-117
462.756	-367
462.882	-228
463.008	-224
463.134	46
463.26	-381
463.386	-262
463.512	-98
463.638	-269
463.764	-332
463.89	-200
464.016	62
464.142	-52
464.268	-319
464.394	-238
464.52	-340
464.645	-104
464.771	3
464.897	-285
465.023	-256
465.149	-118
465.275	-383
465.401	-321
465.527	94
465.653	-132
465.779	59
465.905	-346
466.031	-122
466.157	-317
466.282	-232
466.408	-252
466.534	-151
466.66	-454
466.786	-204
466.912	-111
467.038	-169
467.164	-199
467.289	-257
467.415	-182
467.541	-176
467.667	-179
467.793	-238
467.919	-51
468.045	133
468.17	-299
468.296	-171
468.422	-246
468.548	37
468.674	-398
468.799	-297
468.925	-236
469.051	-305
469.177	-413
469.303	-396
469.428	-13
469.554	-272
469.68	-258
469.806	-90
469.931	-162
470.057	367
470.183	-482
470.309	-264
470.434	120
470.56	-173
470.686	-108
470.812	-165
470.937	-302
471.063	-277
471.189	-92
471.315	38
471.44	-134
471.566	-197
471.692	42
471.817	-283
471.943	-139
472.069	-31
472.194	-218
472.32	-252
472.446	-39
472.571	-311
472.697	-295
472.823	-110
472.948	-357
473.074	-111
473.2	-207
473.325	-333
473.451	-203
473.577	-197
473.702	-439
473.828	-209
473.953	-399
474.079	-156
474.205	-367
474.33	-341
474.456	-236
474.581	185
474.707	-122
474.833	-265
474.958	-64
475.084	-11
475.209	-251
475.335	-306
475.46	-99
475.586	-205
475.712	-59
475.837	-217
475.963	-216
476.088	-399
476.214	-299
476.339	-237
476.465	-276
476.59	-355
476.716	78
476.841	-357
476.967	196
477.092	-211
477.218	-118
477.343	-326
477.469	224
477.594	-258
477.72	-354
477.845	-124
477.971	-240
478.096	-125
478.222	-243
478.347	3238
478.472	13
478.598	-291
478.723	-228
478.849	-27
478.974	-81
479.1	-309
479.225	-136
479.35	-256
479.476	-72
479.601	-299
479.727	45
479.852	-294
479.977	-162
480.103	-180
480.228	146
480.354	-206
480.479	89
480.604	-266
480.73	-285
480.855	-442
480.98	44
481.106	-374
481.231	-366
481.356	-301
481.482	-431
481.607	-336
481.732	-489
481.858	-257
481.983	-324
482.108	-277
482.234	-383
482.359	-267
482.484	77
482.61	-319
482.735	-130
482.86	-394
482.985	-255
483.111	-198
483.236	-96
483.361	-238
483.486	-315
483.612	24
483.737	-422
483.862	-216
483.987	-99
484.113	-415
484.238	-73
484.363	-377
484.488	-252
484.614	-41
484.739	-218
484.864	51
484.989	427
485.114	-89
485.24	-207
485.365	-249
485.49	-427
485.615	-38
485.74	-222
485.865	-136
485.991	-147
486.116	-83
486.241	-390
486.366	-368
486.491	-61
486.616	-293
486.742	-251
486.867	-211
486.992	-358
487.117	-321
487.242	-319
487.367	-456
487.492	-245
487.617	-22
487.742	-156
487.868	-302
487.993	-60
488.118	-85
488.243	-143
488.368	-271
488.493	-418
488.618	-265
488.743	-287
488.868	-287
488.993	-214
489.118	-11
489.243	-146
489.368	-275
489.493	-15
489.618	-183
489.743	-338
489.868	-160
489.993	-280
490.118	-393
490.243	389
490.368	-233
490.493	-20
490.618	-15
490.743	-422
490.868	-157
490.993	-148
491.118	-40
491.243	-359
491.368	-160
491.493	0
491.618	-178
491.743	-225
491.868	-300
491.993	-206
492.118	-291
492.243	-145
492.368	-93
492.493	-296
492.618	138
492.743	-237
492.867	15
492.992	-163
493.117	-32
493.242	-264
493.367	-186
493.492	35
493.617	-267
493.742	87
493.867	-272
493.991	-399
494.116	-156
494.241	-159
494.366	-239
494.491	-60
494.616	61
494.74	-298
494.865	-383
494.99	-245
495.115	-198
495.24	-152
495.365	-280
495.489	-228
495.614	-128
495.739	-226
495.864	-238
495.989	-428
496.113	4
496.238	-140
496.363	-267
496.488	-361
496.612	-26
496.737	-294
496.862	-230
496.987	-249
497.111	-314
497.236	-335
497.361	-314
497.486	43
497.61	-34
497.735	-196
497.86	-70
497.984	-68
498.109	-406
498.234	-292
498.359	-256
498.483	-178
498.608	-151
498.733	-249
498.857	-351
498.982	-176
499.107	-379
499.231	-176
499.356	-243
499.481	94
499.605	-486
499.73	-384
499.855	27
499.979	-301
500.104	-207
500.228	128
500.353	-225
500.478	-361
500.602	-151
500.727	55
500.852	-105
500.976	-425
501.101	-256
501.225	102
501.35	-327
501.474	-314
501.599	-37
501.724	-237
501.848	-183
501.973	82
502.097	-362
502.222	-417
502.346	-53
502.471	-131
502.595	-276
502.72	-360
502.844	-323
502.969	-215
503.094	143
503.218	-413
503.343	-300
503.467	-292
503.592	-269
503.716	-283
503.841	-154
503.965	199
504.089	-224
504.214	-354
504.338	-252
504.463	-37
504.587	-125
504.712	-154
504.836	-203
504.961	255
505.085	113
505.21	-295
505.334	-297
505.458	208
505.583	-359
505.707	-114
505.832	-288
505.956	-164
506.08	-302
506.205	-255
506.329	80
506.454	-376
506.578	-156
506.702	-321
506.827	110
506.951	-74
507.076	-173
507.2	-345
507.324	-42
507.449	60
507.573	-196
507.697	-278
507.822	-187
507.946	-199
508.07	-442
508.195	-223
508.319	-262
508.443	-145
508.567	-431
508.692	-348
508.816	-344
508.94	-199
509.065	-438
509.189	-87
509.313	-70
509.437	-28
509.562	-250
509.686	-140
509.81	-242
509.935	-118
510.059	23
510.183	-325
510.307	-394
510.431	-25
510.556	-173
510.68	-266
510.804	-430
510.928	-213
511.053	-371
511.177	-361
511.301	-208
511.425	-250
511.549	-169
511.674	-145
511.798	-182
511.922	-84
512.046	134
512.17	-226
512.294	-354
512.419	-137
512.543	-50
512.667	-218
512.791	-290
512.915	-120
513.039	-241
513.163	-62
513.288	119
513.412	-272
513.536	52
513.66	-316
513.784	-191
513.908	-148
514.032	-171
514.156	-29
514.28	-50
514.404	-194
514.528	-220
514.653	-64
514.777	-13
514.901	-93
515.025	76
515.149	-230
515.273	-110
515.397	-191
515.521	-194
515.645	-209
515.769	-341
515.893	-282
516.017	-276
516.141	-406
516.265	-235
516.389	-292
516.513	-183
516.637	-316
516.761	-474
516.885	-313
517.009	-210
517.133	-124
517.257	-250
517.381	-17
517.505	-10
517.629	108
517.753	-215
517.877	-351
518.001	-268
518.125	-220
518.248	-72
518.372	-163
518.496	-378
518.62	-102
518.744	-176
518.868	-127
518.992	-141
519.116	-318
519.24	400
519.364	4
519.488	-188
519.611	-425
519.735	-209
519.859	-233
519.983	-50
520.107	-253
520.231	-21
520.355	-155
520.478	-309
520.602	-319
520.726	70
520.85	-229
520.974	1
521.098	-280
521.221	-357
521.345	54
521.469	-296
521.593	-195
521.717	38
521.84	-188
521.964	-304
522.088	-277
522.212	-223
522.335	-421
522.459	-293
522.583	217
522.707	-366
522.83	-455
522.954	-302
523.078	-260
523.202	-51
523.325	-248
523.449	-139
523.573	-202
523.697	-317
523.82	-188
523.944	-245
524.068	-201
524.191	-223
524.315	-417
524.439	-159
524.562	-42
524.686	-254
524.81	-331
524.933	-248
525.057	-242
525.181	-145
525.304	-359
525.428	74
525.552	-394
525.675	-182
525.799	-289
525.923	-134
526.046	-57
526.17	-432
526.293	-344
526.417	-142
526.541	-22
526.664	-262
526.788	-242
526.911	-71
527.035	-361
527.159	-248
527.282	-267
527.406	-301
527.529	-45
527.653	-395
527.776	-106
527.9	-275
528.024	-312
528.147	-230
528.271	1
528.394	-19
528.518	28
528.641	-378
528.765	-117
528.888	-161
529.012	-109
529.135	-284
529.259	70
529.382	-210
529.506	-331
529.629	-123
529.753	-417
529.876	84
530	32
530.123	-164
530.247	-340
530.37	-260
530.493	-185
530.617	-330
530.74	16
530.864	-86
530.987	-376
531.111	-116
531.234	-297
531.357	20
531.481	-33
531.604	17
531.728	-401
531.851	-125
531.974	-120
532.098	-258
532.221	-306
532.345	-207
532.468	-392
532.591	183
532.715	-207
532.838	-262
532.961	-221
533.085	-321
533.208	-165
533.331	-400
533.455	-33
533.578	-231
533.701	-139
533.825	23
533.948	-280
534.071	-263
534.195	-63
534.318	-361
534.441	-280
534.564	-77
534.688	-301
534.811	3
534.934	-204
535.058	-130
535.181	39
535.304	-62
535.427	-313
535.551	-399
535.674	-213
535.797	-83
535.92	-7
536.043	-372
536.167	-369
536.29	-105
536.413	-143
536.536	-322
536.66	-246
536.783	-106
536.906	-163
537.029	-286
537.152	-263
537.275	-198
537.399	99
537.522	-449
537.645	-208
537.768	-264
537.891	-125
538.014	-210
538.138	-292
538.261	-256
538.384	-166
538.507	-376
538.63	-252
538.753	123
538.876	-130
538.999	-342
539.123	-81
539.246	143
539.369	229
539.492	-265
539.615	-337
539.738	190
539.861	-274
539.984	-207
540.107	-139
540.23	-274
540.353	-328
540.476	-474
540.599	-98
540.722	-359
540.846	-134
540.969	-461
541.092	-150
541.215	-357
541.338	-155
541.461	-364
541.584	-214
541.707	-187
541.83	-289
541.953	-164
542.076	-122
542.199	-175
542.322	51
542.445	87
542.567	-241
542.69	-125
542.813	-259
542.936	-89
543.059	-142
543.182	190
543.305	1
543.428	-168
543.551	-198
543.674	75
543.797	-48
543.92	-221
544.043	256
544.166	-313
544.288	-216
544.411	-80
544.534	-344
544.657	-147
544.78	-263
544.903	-111
545.026	-213
545.149	-334
545.271	-349
545.394	-266
545.517	-393
545.64	378
545.763	-231
545.886	-289
546.008	-126
546.131	-8
546.254	-217
546.377	-407
546.5	-54
546.623	-69
546.745	-338
546.868	-242
546.991	4
547.114	-168
547.236	-201
547.359	-342
547.482	-114
547.605	-274
547.728	-281
547.85	-344
547.973	-296
548.096	-216
548.219	-78
548.341	-229
548.464	-372
548.587	-188
548.709	-251
548.832	-168
548.955	254
549.078	-9
549.2	-286
549.323	-288
549.446	172
549.568	-173
549.691	-101
549.814	-43
549.936	-298
550.059	-250
550.182	-330
550.304	-427
550.427	-172
550.55	-261
550.672	-263
550.795	286
550.917	-294
551.04	-208
551.163	-99
551.285	34
551.408	29
551.531	314
551.653	-365
551.776	-122
551.898	-102
552.021	-118
552.143	-215
552.266	-198
552.389	-186
552.511	-363
552.634	-387
552.756	-333
552.879	220
553.001	28
553.124	-425
553.246	-326
553.369	59
553.492	-191
553.614	39
553.737	-482
553.859	-53
553.982	-30
554.104	-142
554.227	-325
554.349	-214
554.472	-227
554.594	-501
554.716	49
554.839	-43
554.961	-123
555.084	-363
555.206	-152
555.329	-372
555.451	-350
555.574	-72
555.696	-331
555.819	-162
555.941	-200
556.063	-45
556.186	-216
556.308	-109
556.431	192
556.553	-22
556.675	-305
556.798	-206
556.92	-61
557.043	-284
557.165	-376
557.287	23
557.41	-188
557.532	-161
557.654	-239
557.777	2
557.899	-173
558.021	-191
558.144	49
558.266	50
558.388	239
558.511	-222
558.633	-151
558.755	-275
558.878	-306
559	-23
559.122	-421
559.244	-262
559.367	-211
559.489	19
559.611	98
559.734	-206
559.856	-153
559.978	-169
560.1	-192
560.223	-167
560.345	39
560.467	-377
560.589	-213
560.712	-223
560.834	194
560.956	-346
561.078	-194
561.2	-102
561.323	53
561.445	-386
561.567	-284
561.689	-318
561.811	-69
561.934	-229
562.056	-208
562.178	-100
562.3	-214
562.422	-86
562.544	-168
562.666	21
562.789	-116
562.911	-183
563.033	-64
563.155	-18
563.277	-290
563.399	-456
563.521	-269
563.643	-298
563.766	-183
563.888	4
564.01	-148
564.132	-305
564.254	-364
564.376	35
564.498	-136
564.62	133
564.742	-181
564.864	-404
564.986	-149
565.108	251
565.23	-264
565.352	-32
565.474	-145
565.597	144
565.719	94
565.841	-347
565.963	-111
566.085	-124
566.207	-185
566.329	-34
566.451	1
566.573	-234
566.695	-203
566.817	192
566.938	-325
567.06	-223
567.182	-142
567.304	-202
567.426	-385
567.548	5
567.67	-112
567.792	-179
567.914	-292
568.036	-177
568.158	-180
568.28	-334
568.402	-79
568.524	-201
568.646	-282
568.767	-265
568.889	10
569.011	-210
569.133	-245
569.255	-395
569.377	-325
569.499	-116
569.621	-241
569.742	219
569.864	-13
569.986	311
570.108	-31
570.23	-357
570.352	77
570.473	-134
570.595	-191
570.717	-378
570.839	-147
570.961	-44
571.082	-204
571.204	-308
571.326	-313
571.448	-11
571.57	30
571.691	-153
571.813	-134
571.935	33
572.057	-164
572.178	-299
572.3	81
572.422	132
572.544	199
572.665	-277
572.787	-334
572.909	104
573.031	-87
573.152	-351
573.274	-15
573.396	-10
573.517	-53
573.639	-426
573.761	-313
573.882	-143
574.004	-9
574.126	-315
574.247	-32
574.369	-56
574.491	-171
574.612	-313
574.734	-164
574.856	-155
574.977	-21
575.099	-153
575.221	-154
575.342	-193
575.464	-123
575.585	-74
575.707	-318
575.829	95
575.95	42
576.072	-237
576.193	-316
576.315	-216
576.437	-190
576.558	-186
576.68	-198
576.801	173
576.923	-340
577.044	57
577.166	-409
577.287	-142
577.409	-215
577.531	-198
577.652	-49
577.774	-385
577.895	-143
578.017	-288
578.138	-266
578.26	-152
578.381	-69
578.503	-253
578.624	-288
578.746	-346
578.867	-207
578.988	-117
579.11	136
579.231	-90
579.353	-232
579.474	-159
579.596	-237
579.717	39
579.839	-155
579.96	-468
580.081	-75
580.203	-177
580.324	-94
580.446	-35
580.567	-166
580.688	192
580.81	-314
580.931	-227
581.053	-411
581.174	-152
581.295	-248
581.417	-77
581.538	-37
581.659	-50
581.781	-120
581.902	-270
582.024	-328
582.145	-320
582.266	-291
582.388	-206
582.509	-341
582.63	-159
582.751	-241
582.873	-230
582.994	-251
583.115	-178
583.237	-124
583.358	-273
583.479	-420
583.6	3
583.722	-179
583.843	-325
583.964	-71
584.086	-229
584.207	-65
584.328	-355
584.449	-101
584.57	-109
584.692	-158
584.813	838
584.934	-166
585.055	-302
585.177	-15
585.298	-124
585.419	-336
585.54	176
585.661	-66
585.783	-130
585.904	-286
586.025	62
586.146	-315
586.267	-234
586.388	-179
586.51	265
586.631	-318
586.752	-364
586.873	-233
586.994	-335
587.115	-330
587.236	-280
587.357	-390
587.479	-287
587.6	41
587.721	-242
587.842	-309
587.963	147
588.084	74
588.205	-366
588.326	-229
588.447	-135
588.568	-187
588.689	-153
588.81	-122
588.931	-180
589.052	-234
589.174	-305
589.295	-96
589.416	-132
589.537	24
589.658	-251
589.779	-405
589.9	22
590.021	-246
590.142	-257
590.263	-415
590.384	-165
590.505	173
590.626	-311
590.747	-151
590.867	-63
590.988	-77
591.109	-221
591.23	39
591.351	-11
591.472	-176
591.593	-227
591.714	-129
591.835	-240
591.956	-208
592.077	-405
592.198	-170
592.319	-97
592.44	-10
592.56	-265
592.681	-393
592.802	-66
592.923	-180
593.044	-335
593.165	-350
593.286	-84
593.407	-295
593.527	6
593.648	-325
593.769	-60
593.89	67
594.011	-188
594.132	-261
594.252	-97
594.373	-285
594.494	-401
594.615	-211
594.736	-236
594.856	1
594.977	-351
595.098	-151
595.219	-305
595.34	-96
595.46	-348
595.581	185
595.702	-144
595.823	-309
595.943	-125
596.064	-181
596.185	98
596.306	-383
596.426	-310
596.547	-373
596.668	-66
596.788	-128
596.909	-163
597.03	-90
597.151	-144
597.271	-282
597.392	-199
597.513	-103
597.633	-3
597.754	-118
597.875	-192
597.995	70
598.116	-136
598.237	-209
598.357	-298
598.478	-294
598.599	162
598.719	-187
598.84	-361
598.96	-297
599.081	-182
599.202	-191
599.322	-315
599.443	-335
599.563	-76
599.684	30
599.805	-226
599.925	-392
600.046	227
600.166	-192
600.287	-98
600.407	-158
600.528	25
600.649	-69
600.769	-157
600.89	-375
601.01	-20
601.131	-231
601.251	139
601.372	-120
601.492	-245
601.613	-287
601.733	-266
601.854	207
601.974	306
602.095	165
602.215	-346
602.336	-361
602.456	209
602.577	-271
602.697	660
602.817	-31
602.938	-140
603.058	-54
603.179	-362
603.299	-330
603.42	-352
603.54	-67
603.66	-344
603.781	-123
603.901	-245
604.022	104
604.142	-171
604.262	-154
604.383	-267
604.503	89
604.624	-273
604.744	-142
604.864	-34
604.985	-217
605.105	-156
605.225	-161
605.346	-145
605.466	45
605.586	177
605.707	263
605.827	-320
605.947	-192
606.068	-226
606.188	-220
606.308	-254
606.429	42
606.549	-234
606.669	-360
606.789	-305
606.91	-58
607.03	-307
607.15	-243
607.27	-82
607.391	8
607.511	-276
607.631	-298
607.751	127
607.872	-4
607.992	-350
608.112	9
608.232	-255
608.353	-316
608.473	-266
608.593	80
608.713	333
608.833	-152
608.954	-282
609.074	-238
609.194	-318
609.314	194
609.434	-33
609.554	-182
609.675	-55
609.795	-246
609.915	-305
610.035	288
610.155	-169
610.275	-225
610.395	-49
610.516	-364
610.636	-102
610.756	-58
610.876	-67
610.996	-308
611.116	174
611.236	-357
611.356	-255
611.476	-155
611.596	-106
611.716	94
611.836	-331
611.957	-330
612.077	-135
612.197	-80
612.317	-345
612.437	69
612.557	56
612.677	-201
612.797	-124
612.917	-327
613.037	-33
613.157	-127
613.277	-110
613.397	124
613.517	150
613.637	-267
613.757	-177
613.877	-298
613.997	-91
614.117	-270
614.237	-195
614.356	-112
614.476	36
614.596	-12
614.716	-205
614.836	-220
614.956	-43
615.076	-106
615.196	-313
615.316	-110
615.436	-38
615.556	158
615.676	192
615.795	-89
615.915	-116
616.035	-223
616.155	-165
616.275	-295
616.395	-218
616.515	0
616.635	-403
616.754	-417
616.874	-29
616.994	-131
617.114	220
617.234	15
617.354	33
617.473	360
617.593	-250
617.713	-163
617.833	-42
617.953	-77
618.072	-478
618.192	-258
618.312	58
618.432	107
618.551	-286
618.671	-289
618.791	-7
618.911	-98
619.03	-198
619.15	-157
619.27	-183
619.39	-267
619.509	-149
619.629	-205
619.749	-267
619.868	-109
619.988	-375
620.108	-236
620.228	718
620.347	-99
620.467	-327
620.587	-310
620.706	84
620.826	-279
620.946	-293
621.065	-29
621.185	262
621.305	-217
621.424	-252
621.544	-404
621.663	-30
621.783	-212
621.903	199
622.022	-292
622.142	-146
622.261	150
622.381	-173
622.501	-49
622.62	-201
622.74	-110
622.859	-230
622.979	86
623.099	-202
623.218	-40
623.338	94
623.457	-66
623.577	-236
623.696	-81
623.816	-391
623.935	-289
624.055	-255
624.174	-154
624.294	-191
624.413	-380
624.533	-65
624.652	96
624.772	-279
624.891	-392
625.011	39
625.13	-217
625.25	-384
625.369	-266
625.489	-191
625.608	-269
625.728	-209
625.847	-173
625.966	-285
626.086	-272
626.205	-353
626.325	-107
626.444	-142
626.564	144
626.683	28
626.802	-1
626.922	109
627.041	-25
627.161	-197
627.28	0
627.399	0
627.519	-90
627.638	-421
627.757	-280
627.877	-183
627.996	-163
628.115	-57
628.235	-39
628.354	-317
628.473	-111
628.593	95
628.712	-155
628.831	-119
628.951	-355
629.07	81
629.189	-147
629.309	-161
629.428	174
629.547	-353
629.666	-82
629.786	-140
629.905	-289
630.024	-36
630.143	-109
630.263	-157
630.382	227
630.501	-242
630.62	-232
630.74	-313
630.859	100
630.978	-192
631.097	-340
631.216	-305
631.336	164
631.455	-269
631.574	-253
631.693	-67
631.812	-166
631.932	-443
632.051	67
632.17	332
632.289	19
632.408	-257
632.527	-166
632.646	-100
632.766	-260
632.885	145
633.004	-362
633.123	-141
633.242	-243
633.361	602
633.48	-312
633.599	-259
633.718	53
633.838	-107
633.957	-381
634.076	-73
634.195	-182
634.314	-65
634.433	-49
634.552	-247
634.671	-101
634.79	175
634.909	17
635.028	-73
635.147	-33
635.266	-300
635.385	-142
635.504	-298
635.623	-79
635.742	-349
635.861	-361
635.98	-99
636.099	-201
636.218	-180
636.337	-138
636.456	257
636.575	26
636.694	-137
636.813	-359
636.932	-316
637.051	-122
637.17	-411
637.289	-141
637.408	-331
637.526	-95
637.645	-456
637.764	-350
637.883	-201
638.002	29
638.121	330
638.24	-306
638.359	52
638.478	-196
638.597	-320
638.715	329
638.834	-132
638.953	30
639.072	-371
639.191	-372
639.31	34
639.428	-82
639.547	-105
639.666	-49
639.785	-47
639.904	-92
640.023	-372
640.141	-230
640.26	-159
640.379	-33
640.498	-423
640.616	-126
640.735	-144
640.854	65
640.973	-329
641.092	-46
641.21	-45
641.329	-171
641.448	-24
641.567	197
641.685	-152
641.804	-172
641.923	-174
642.041	-295
642.16	-169
642.279	66
642.398	-228
642.516	-271
642.635	129
642.754	-168
642.872	11
642.991	38
643.11	-242
643.228	-275
643.347	-381
643.466	-389
643.584	33
643.703	215
643.821	-163
643.94	-162
644.059	-51
644.177	55
644.296	-348
644.415	-227
644.533	-110
644.652	-4
644.77	-386
644.889	-342
645.008	64
645.126	-243
645.245	-35
645.363	44
645.482	-64
645.6	-141
645.719	-250
645.837	-228
645.956	-91
646.074	-296
646.193	-315
646.312	-20
646.43	140
646.549	218
646.667	-465
646.786	-348
646.904	40
647.023	-17
647.141	-352
647.26	-49
647.378	397
647.496	-167
647.615	-94
647.733	-105
647.852	235
647.97	-204
648.089	-18
648.207	-39
648.326	112
648.444	-159
648.562	-198
648.681	-116
648.799	-161
648.918	-80
649.036	-142
649.154	-239
649.273	80
649.391	-156
649.51	-308
649.628	-357
649.746	193
649.865	-193
649.983	-317
650.101	-148
650.22	-112
650.338	-230
650.456	-238
650.575	-247
650.693	-295
650.811	-23
650.93	-357
651.048	1053
651.166	298
651.285	-132
651.403	-37
651.521	-133
651.639	-114
651.758	-122
651.876	189
651.994	-332
652.112	82
652.231	-117
652.349	-308
652.467	-472
652.585	-113
652.704	-13
652.822	-431
652.94	-380
653.058	-69
653.176	-230
653.295	-190
653.413	-27
653.531	-202
653.649	-138
653.767	-314
653.886	-344
654.004	-262
654.122	147
654.24	-373
654.358	-341
654.476	-151
654.594	184
654.713	-221
654.831	-399
654.949	-178
655.067	-24
655.185	-345
655.303	-281
655.421	-145
655.539	89
655.658	-191
655.776	-201
655.894	9
656.012	159
656.13	-419
656.248	-243
656.366	-249
656.484	-139
656.602	-346
656.72	-282
656.838	-56
656.956	-161
657.074	-81
657.192	-137
657.31	-268
657.428	-160
657.546	-135
657.664	-145
657.782	-141
657.9	119
658.018	-242
658.136	-188
658.254	59
658.372	89
658.49	-337
658.608	-334
658.726	-6
658.844	-2
658.962	-285
659.08	-369
659.198	-44
659.316	-110
